# Sweep from 15806.612Hz to 15841.245Hz step 0.2886083333333469Hz delay 0.8s
# Excitation 0.003443Vpp attenuator 0 dB
# time(s), freq(Hz), absorption(nA), dispersion(nA)
78520.92 15806.612 3.8878788 -0.43587815
78521.73 15806.901 3.8846779 -0.43570552
78522.55 15807.189 3.8896228 -0.4354583
78523.36 15807.478 3.8859966 -0.43855738
78524.18 15807.766 3.8825842 -0.43565561
78525.00 15808.055 3.8818703 -0.43777081
78525.82 15808.344 3.8861044 -0.44505768
78526.63 15808.632 3.8873336 -0.43844338
78527.45 15808.921 3.8853682 -0.44214397
78528.27 15809.209 3.8870908 -0.43958426
78529.08 15809.498 3.8870794 -0.447107
78529.90 15809.787 3.8890867 -0.44562569
78530.72 15810.075 3.8891199 -0.44893565
78531.54 15810.364 3.8917442 -0.4480917
78532.36 15810.653 3.8936641 -0.45081967
78533.17 15810.941 3.8910771 -0.45165501
78533.99 15811.230 3.8937865 -0.44892323
78534.80 15811.518 3.8985945 -0.45083956
78535.62 15811.807 3.8945832 -0.45752896
78536.43 15812.096 3.8969297 -0.4577272
78537.25 15812.384 3.8967169 -0.45373019
78538.06 15812.673 3.8991079 -0.4586841
78538.88 15812.961 3.8948765 -0.45844502
78539.69 15813.250 3.8987041 -0.46026463
78540.51 15813.539 3.9008246 -0.45912819
78541.33 15813.827 3.9016295 -0.46669021
78542.14 15814.116 3.8997659 -0.46275593
78542.96 15814.404 3.8989283 -0.46764359
78543.78 15814.693 3.9025617 -0.47106107
78544.60 15814.982 3.910523 -0.47456649
78545.42 15815.270 3.9067222 -0.47757277
78546.23 15815.559 3.908312 -0.48115942
78547.05 15815.847 3.9102424 -0.47365347
78547.87 15816.136 3.9134557 -0.48357072
78548.68 15816.425 3.9184119 -0.48325194
78549.50 15816.713 3.914402 -0.48589158
78550.32 15817.002 3.9179204 -0.48432554
78551.13 15817.291 3.9244132 -0.49134957
78551.95 15817.579 3.92625 -0.49645286
78552.76 15817.868 3.9361407 -0.49671854
78553.58 15818.156 3.9366187 -0.50000892
78554.39 15818.445 3.9437127 -0.50108235
78555.21 15818.734 3.9424795 -0.50886052
78556.02 15819.022 3.9490737 -0.50862553
78556.84 15819.311 3.9545034 -0.51731996
78557.65 15819.599 3.9627312 -0.52381876
78558.46 15819.888 3.9639567 -0.5192644
78559.28 15820.177 3.982002 -0.53602912
78560.10 15820.465 3.9839842 -0.53704332
78560.92 15820.754 4.0035175 -0.54548286
78561.73 15821.042 4.0167902 -0.54441216
78562.54 15821.331 4.0414393 -0.54837966
78563.36 15821.620 4.0773621 -0.55425738
78564.18 15821.908 4.121222 -0.54639617
78564.99 15822.197 4.1882258 -0.51860638
78565.81 15822.485 4.257894 -0.42216013
78566.63 15822.774 4.2608549 -0.36185685
78567.44 15823.063 4.2613206 -0.33200405
78568.26 15823.351 4.2517572 -0.30665115
78569.07 15823.640 4.2448892 -0.29357935
78569.89 15823.928 4.2271763 -0.27271625
78570.71 15824.217 4.2202032 -0.25631721
78571.52 15824.506 4.2087463 -0.24243005
78572.34 15824.794 4.1876947 -0.23184776
78573.16 15825.083 4.1694011 -0.22173211
78573.97 15825.372 4.1645694 -0.21134186
78574.79 15825.660 4.1452954 -0.21037724
78575.61 15825.949 4.1338199 -0.2043774
78576.42 15826.237 4.1213666 -0.20456194
78577.23 15826.526 4.104229 -0.20036404
78578.05 15826.815 4.0965401 -0.1991568
78578.86 15827.103 4.0790069 -0.20151894
78579.68 15827.392 4.0678606 -0.19913986
78580.49 15827.680 4.0522204 -0.20100157
78581.31 15827.969 4.047301 -0.20744693
78582.12 15828.258 4.0305099 -0.20137766
78582.94 15828.546 4.0254877 -0.20595527
78583.76 15828.835 4.0113209 -0.20277297
78584.57 15829.123 4.0036743 -0.21061359
78585.38 15829.412 3.994795 -0.21005859
78586.20 15829.701 3.9908664 -0.2129907
78587.02 15829.989 3.9790989 -0.21845183
78587.83 15830.278 3.9765237 -0.22293258
78588.65 15830.566 3.9675479 -0.22026319
78589.47 15830.855 3.9523543 -0.22666707
78590.29 15831.144 3.9591432 -0.23186709
78591.11 15831.432 3.9505826 -0.23151121
78591.92 15831.721 3.9448687 -0.23887986
78592.74 15832.010 3.9498809 -0.24084142
78593.55 15832.298 3.937665 -0.24388083
78594.37 15832.587 3.9336087 -0.24642338
78595.18 15832.875 3.9314164 -0.25173077
78595.99 15833.164 3.9282236 -0.24736829
78596.81 15833.453 3.9284123 -0.25370332
78597.63 15833.741 3.920622 -0.26765437
78598.45 15834.030 3.9199267 -0.25695607
78599.27 15834.318 3.9216307 -0.26491094
78600.09 15834.607 3.9178753 -0.2672443
78600.90 15834.896 3.9175216 -0.27169688
78601.72 15835.184 3.910649 -0.2724633
78602.54 15835.473 3.9104634 -0.27552011
78603.35 15835.761 3.9059064 -0.27174545
78604.17 15836.050 3.9077918 -0.27610704
78604.98 15836.339 3.9012698 -0.28509393
78605.80 15836.627 3.9024972 -0.28231764
78606.61 15836.916 3.9029046 -0.28446772
78607.43 15837.204 3.8986591 -0.2847035
78608.24 15837.493 3.9013107 -0.28056314
78609.06 15837.782 3.897474 -0.28964644
78609.88 15838.070 3.8979747 -0.28916588
78610.69 15838.359 3.8930511 -0.28968063
78611.51 15838.648 3.8996991 -0.29058711
78612.33 15838.936 3.9007982 -0.29825841
78613.15 15839.225 3.8912704 -0.29389423
78613.96 15839.513 3.8917824 -0.29768276
78614.78 15839.802 3.8922462 -0.2981144
78615.60 15840.091 3.8885873 -0.29228235
78616.41 15840.379 3.8919725 -0.30073184
78617.22 15840.668 3.8946337 -0.30721367
78618.04 15840.956 3.8952667 -0.29989235
78618.85 15841.245 3.8872577 -0.30447052
