# Sweep from 15804.668Hz to 15840.301Hz step 0.2969416666666651Hz delay 0.8s
# Excitation 0.004438Vpp attenuator 0 dB
# time(s), freq(Hz), absorption(nA), dispersion(nA)
81288.54 15804.668 5.0001972 -0.46772109
81289.35 15804.965 4.9969872 -0.47179682
81290.17 15805.262 5.0001936 -0.46913573
81290.98 15805.559 5.0032936 -0.47192307
81291.80 15805.856 5.0036388 -0.47477087
81292.62 15806.153 5.0004137 -0.47579798
81293.43 15806.450 4.9969767 -0.47068929
81294.25 15806.747 5.0014978 -0.47477138
81295.07 15807.044 5.0062836 -0.47570288
81295.88 15807.340 5.0047411 -0.48677452
81296.70 15807.637 5.0041717 -0.47806856
81297.51 15807.934 5.0060448 -0.484515
81298.33 15808.231 5.0047747 -0.49054336
81299.15 15808.528 5.0059998 -0.47796004
81299.97 15808.825 5.0098824 -0.48554392
81300.79 15809.122 5.0081899 -0.48362483
81301.60 15809.419 5.0003464 -0.48703026
81302.42 15809.716 5.0079175 -0.48453063
81303.23 15810.013 5.0096082 -0.49020036
81304.05 15810.310 5.0091021 -0.49737173
81304.87 15810.607 5.0096246 -0.48871021
81305.68 15810.904 5.012887 -0.49540364
81306.49 15811.201 5.0072231 -0.49736821
81307.31 15811.498 5.0160006 -0.49426296
81308.13 15811.795 5.0151539 -0.50289162
81308.94 15812.092 5.0088952 -0.49906129
81309.76 15812.388 5.01863 -0.50201032
81310.58 15812.685 5.0155686 -0.49877269
81311.39 15812.982 5.0199187 -0.50434477
81312.21 15813.279 5.0218787 -0.50646906
81313.03 15813.576 5.0190297 -0.51389338
81313.84 15813.873 5.0245858 -0.51622038
81314.66 15814.170 5.0219405 -0.51680081
81315.47 15814.467 5.0281551 -0.52036938
81316.29 15814.764 5.0285917 -0.52662824
81317.10 15815.061 5.0356603 -0.53071102
81317.91 15815.358 5.0279427 -0.53085455
81318.73 15815.655 5.0313311 -0.53403494
81319.54 15815.952 5.0368835 -0.53730724
81320.36 15816.249 5.0405565 -0.53949975
81321.17 15816.546 5.0434319 -0.54278024
81321.99 15816.843 5.047159 -0.54550634
81322.81 15817.140 5.0464646 -0.55750934
81323.62 15817.436 5.0539629 -0.55577067
81324.43 15817.733 5.0545364 -0.55643102
81325.25 15818.030 5.0647132 -0.56635571
81326.06 15818.327 5.067353 -0.57478042
81326.88 15818.624 5.0688418 -0.57554348
81327.70 15818.921 5.0807562 -0.58377606
81328.52 15819.218 5.092958 -0.59279625
81329.34 15819.515 5.1075613 -0.6013716
81330.15 15819.812 5.1209504 -0.61055857
81330.97 15820.109 5.1521697 -0.62966069
81331.79 15820.406 5.1854772 -0.63757977
81332.60 15820.703 5.3252093 -0.60712745
81333.42 15821.000 5.4698307 -0.26176787
81334.23 15821.297 5.4580687 -0.24175341
81335.05 15821.594 5.4518091 -0.22774552
81335.86 15821.891 5.4345942 -0.20964394
81336.68 15822.188 5.4212969 -0.20409236
81337.49 15822.484 5.409483 -0.19511708
81338.31 15822.781 5.3989593 -0.1866768
81339.12 15823.078 5.3837339 -0.18187644
81339.94 15823.375 5.3687695 -0.17498583
81340.75 15823.672 5.356982 -0.16322318
81341.57 15823.969 5.3467788 -0.16682591
81342.38 15824.266 5.3286985 -0.15962351
81343.20 15824.563 5.3159924 -0.15773929
81344.02 15824.860 5.3012163 -0.1519922
81344.83 15825.157 5.2867313 -0.15055718
81345.65 15825.454 5.2740561 -0.15184719
81346.47 15825.751 5.2580963 -0.15601431
81347.29 15826.048 5.2514542 -0.15448757
81348.10 15826.345 5.2429505 -0.16561368
81348.92 15826.642 5.2302657 -0.15810785
81349.73 15826.939 5.2128644 -0.15959516
81350.55 15827.236 5.20713 -0.16330341
81351.37 15827.533 5.1882248 -0.16398951
81352.18 15827.829 5.1774787 -0.16464372
81353.00 15828.126 5.1696911 -0.17460428
81353.81 15828.423 5.1552106 -0.17366519
81354.63 15828.720 5.1522397 -0.18335314
81355.45 15829.017 5.1436323 -0.18437514
81356.26 15829.314 5.1322049 -0.19216213
81357.08 15829.611 5.125657 -0.196062
81357.90 15829.908 5.117709 -0.19750769
81358.71 15830.205 5.1114157 -0.19855874
81359.53 15830.502 5.1066427 -0.20515904
81360.34 15830.799 5.0938261 -0.2074168
81361.15 15831.096 5.0926706 -0.21251789
81361.97 15831.393 5.0816843 -0.2209437
81362.79 15831.690 5.0789849 -0.21965154
81363.60 15831.987 5.077964 -0.22554867
81364.42 15832.284 5.0719332 -0.23426946
81365.23 15832.581 5.0682756 -0.23909743
81366.05 15832.877 5.0636045 -0.24115619
81366.86 15833.174 5.0527165 -0.24751071
81367.68 15833.471 5.0539766 -0.25308358
81368.49 15833.768 5.0466083 -0.25283518
81369.31 15834.065 5.0468393 -0.25239225
81370.13 15834.362 5.0479439 -0.25610953
81370.94 15834.659 5.0404301 -0.25880522
81371.76 15834.956 5.0372255 -0.26727892
81372.57 15835.253 5.0329659 -0.26877234
81373.39 15835.550 5.0366457 -0.26649124
81374.20 15835.847 5.0334047 -0.27619453
81375.02 15836.144 5.0343983 -0.27909113
81375.83 15836.441 5.0292197 -0.27616858
81376.65 15836.738 5.0266472 -0.27529879
81377.46 15837.035 5.0263275 -0.28867919
81378.28 15837.332 5.0248059 -0.29192108
81379.09 15837.629 5.0189906 -0.28881317
81379.91 15837.925 5.017127 -0.28551324
81380.72 15838.222 5.0166122 -0.29302208
81381.54 15838.519 5.0177418 -0.29157297
81382.36 15838.816 5.009369 -0.29275574
81383.17 15839.113 5.012233 -0.3017928
81383.99 15839.410 5.0147037 -0.30731971
81384.80 15839.707 5.016564 -0.30280216
81385.62 15840.004 5.0104768 -0.29804986
81386.44 15840.301 5.0144163 -0.30604173
