# Sweep from 15804.091Hz to 15846.642Hz step 0.3545916666666623Hz delay 0.8s
# Excitation 0.001380Vpp attenuator 0 dB
# time(s), freq(Hz), absorption(nA), dispersion(nA)
67650.91 15804.091 1.5421266 -0.33871493
67651.73 15804.446 1.5380449 -0.34565608
67652.54 15804.800 1.5370847 -0.34364305
67653.36 15805.155 1.5408639 -0.34342676
67654.17 15805.509 1.5347367 -0.34834272
67654.99 15805.864 1.539971 -0.34351001
67655.81 15806.219 1.5406978 -0.3471657
67656.62 15806.573 1.5384043 -0.34795715
67657.44 15806.928 1.5397496 -0.34546204
67658.25 15807.282 1.5329091 -0.34434527
67659.07 15807.637 1.5390829 -0.34193485
67659.88 15807.992 1.5455867 -0.34436292
67660.70 15808.346 1.5410591 -0.35061299
67661.52 15808.701 1.5409396 -0.34931639
67662.34 15809.055 1.546592 -0.34841719
67663.15 15809.410 1.540782 -0.34439674
67663.96 15809.764 1.5388019 -0.34488158
67664.78 15810.119 1.5427394 -0.35441036
67665.59 15810.474 1.5379513 -0.35104873
67666.41 15810.828 1.5402784 -0.35197468
67667.23 15811.183 1.5398198 -0.35602577
67668.05 15811.537 1.5405964 -0.35248416
67668.86 15811.892 1.544292 -0.35390818
67669.68 15812.247 1.5444692 -0.35701413
67670.49 15812.601 1.5396006 -0.35885947
67671.31 15812.956 1.5457584 -0.35179187
67672.12 15813.310 1.5485653 -0.35603588
67672.94 15813.665 1.5482419 -0.35378142
67673.75 15814.020 1.5434056 -0.35660722
67674.57 15814.374 1.5463861 -0.35740388
67675.38 15814.729 1.552888 -0.35738623
67676.20 15815.083 1.5451263 -0.36389235
67677.01 15815.438 1.551101 -0.36328908
67677.83 15815.793 1.548362 -0.3614922
67678.65 15816.147 1.5530422 -0.36493395
67679.46 15816.502 1.5546873 -0.36860956
67680.28 15816.856 1.5556341 -0.36133392
67681.09 15817.211 1.5536375 -0.35969285
67681.91 15817.565 1.5560652 -0.36747733
67682.72 15817.920 1.557992 -0.36772855
67683.54 15818.275 1.5638456 -0.37048645
67684.36 15818.629 1.5648698 -0.37362128
67685.17 15818.984 1.5653554 -0.37356773
67685.98 15819.338 1.5694148 -0.3779848
67686.80 15819.693 1.5679318 -0.37923175
67687.62 15820.048 1.5748439 -0.37423001
67688.43 15820.402 1.5754915 -0.37783289
67689.25 15820.757 1.5812883 -0.38280913
67690.07 15821.111 1.5879266 -0.3848925
67690.89 15821.466 1.5929497 -0.37619972
67691.71 15821.821 1.5991562 -0.37935092
67692.53 15822.175 1.603191 -0.38250741
67693.34 15822.530 1.6107755 -0.37738167
67694.16 15822.884 1.6177738 -0.37731959
67694.98 15823.239 1.6269413 -0.37414421
67695.79 15823.594 1.6300113 -0.36724754
67696.61 15823.948 1.6394208 -0.36772343
67697.43 15824.303 1.6502671 -0.35572143
67698.24 15824.657 1.6575477 -0.34454089
67699.06 15825.012 1.6541574 -0.33003064
67699.87 15825.367 1.6523318 -0.31913112
67700.69 15825.721 1.6565983 -0.30947302
67701.51 15826.076 1.650107 -0.29288174
67702.32 15826.430 1.6467284 -0.2902533
67703.13 15826.785 1.6366702 -0.28082121
67703.95 15827.139 1.6367186 -0.27256121
67704.76 15827.494 1.6278092 -0.26715512
67705.58 15827.849 1.6134204 -0.26492054
67706.39 15828.203 1.6126446 -0.26029258
67707.21 15828.558 1.607001 -0.26495397
67708.03 15828.912 1.6009375 -0.26793143
67708.84 15829.267 1.5927566 -0.26295808
67709.66 15829.622 1.580631 -0.26339745
67710.48 15829.976 1.5781665 -0.2647613
67711.30 15830.331 1.5743354 -0.26588077
67712.11 15830.685 1.5731513 -0.26595856
67712.92 15831.040 1.5715848 -0.26566349
67713.74 15831.395 1.5669358 -0.26676602
67714.55 15831.749 1.561688 -0.26968814
67715.37 15832.104 1.56622 -0.27252796
67716.19 15832.458 1.5588754 -0.27189228
67717.01 15832.813 1.5565392 -0.27793465
67717.83 15833.168 1.558029 -0.28277657
67718.64 15833.522 1.5534904 -0.28279558
67719.46 15833.877 1.5538994 -0.27506525
67720.28 15834.231 1.5455644 -0.27983265
67721.09 15834.586 1.5459198 -0.28079333
67721.91 15834.940 1.5469989 -0.27883092
67722.72 15835.295 1.5465257 -0.28197755
67723.54 15835.650 1.5465286 -0.28375266
67724.36 15836.004 1.5460954 -0.27997277
67725.18 15836.359 1.5468904 -0.2903225
67726.00 15836.713 1.5433758 -0.28563193
67726.81 15837.068 1.543984 -0.2901759
67727.63 15837.423 1.5453177 -0.28469518
67728.44 15837.777 1.5404299 -0.28721814
67729.26 15838.132 1.5403385 -0.28744901
67730.07 15838.486 1.5377481 -0.28954798
67730.89 15838.841 1.5375008 -0.29045509
67731.71 15839.196 1.540476 -0.29298923
67732.53 15839.550 1.5392692 -0.28773684
67733.34 15839.905 1.5374283 -0.28865708
67734.16 15840.259 1.5410299 -0.29203082
67734.97 15840.614 1.5404573 -0.29560917
67735.79 15840.969 1.541474 -0.29818031
67736.60 15841.323 1.5378174 -0.29086291
67737.42 15841.678 1.5383024 -0.29326463
67738.23 15842.032 1.5358439 -0.30079278
67739.05 15842.387 1.5408954 -0.29821652
67739.86 15842.741 1.5362358 -0.29525495
67740.68 15843.096 1.5401356 -0.29376278
67741.49 15843.451 1.5348138 -0.29861306
67742.31 15843.805 1.5399929 -0.29537665
67743.12 15844.160 1.539656 -0.2997883
67743.94 15844.514 1.5371696 -0.29680936
67744.76 15844.869 1.5347948 -0.29878237
67745.57 15845.224 1.5336366 -0.29512503
67746.39 15845.578 1.5385466 -0.29796084
67747.21 15845.933 1.5355394 -0.29819262
67748.03 15846.287 1.5326767 -0.2985297
67748.84 15846.642 1.5401439 -0.29968874
