# Sweep from 15802.124Hz to 15848.299Hz step 0.38479166666667575Hz delay 0.8s
# Excitation 0.000967Vpp attenuator 0 dB
# time(s), freq(Hz), absorption(nA), dispersion(nA)
63895.58 15802.124 1.072489 -0.32148961
63896.40 15802.509 1.0748139 -0.32750231
63897.21 15802.894 1.0747532 -0.32158547
63898.03 15803.278 1.0766403 -0.32215988
63898.85 15803.663 1.0793432 -0.32718617
63899.66 15804.048 1.0774453 -0.32663911
63900.48 15804.433 1.0712545 -0.32240206
63901.29 15804.818 1.0742637 -0.32063474
63902.10 15805.202 1.080052 -0.31952308
63902.92 15805.587 1.0749139 -0.3222963
63903.74 15805.972 1.0801112 -0.33304846
63904.56 15806.357 1.079732 -0.32056982
63905.37 15806.742 1.081045 -0.32763248
63906.19 15807.126 1.0812769 -0.32434522
63907.00 15807.511 1.0797996 -0.32755753
63907.82 15807.896 1.0800925 -0.3295419
63908.63 15808.281 1.0758806 -0.32426431
63909.45 15808.665 1.0813482 -0.33003556
63910.26 15809.050 1.0756431 -0.33126767
63911.08 15809.435 1.0815151 -0.33132497
63911.90 15809.820 1.0772961 -0.32939744
63912.71 15810.205 1.0818788 -0.32603711
63913.53 15810.589 1.0859031 -0.33149843
63914.34 15810.974 1.0801942 -0.3337918
63915.16 15811.359 1.081159 -0.33283888
63915.97 15811.744 1.0801813 -0.3352929
63916.79 15812.129 1.0830011 -0.33544646
63917.60 15812.513 1.0833322 -0.33031307
63918.42 15812.898 1.0835886 -0.33600077
63919.23 15813.283 1.0858405 -0.33150403
63920.05 15813.668 1.0837101 -0.33251644
63920.87 15814.053 1.0810998 -0.33509448
63921.69 15814.437 1.0810858 -0.33727403
63922.51 15814.822 1.0836446 -0.33495803
63923.33 15815.207 1.0860836 -0.33805159
63924.14 15815.592 1.0854968 -0.33917539
63924.96 15815.977 1.0808964 -0.3375452
63925.77 15816.361 1.0834033 -0.3411117
63926.59 15816.746 1.0903339 -0.3420983
63927.41 15817.131 1.0879975 -0.34642557
63928.23 15817.516 1.0946405 -0.34850569
63929.04 15817.900 1.0949053 -0.34465612
63929.86 15818.285 1.0900247 -0.35162236
63930.67 15818.670 1.0981958 -0.34459578
63931.49 15819.055 1.0970367 -0.34486416
63932.31 15819.440 1.1007796 -0.34462249
63933.12 15819.824 1.103463 -0.35189157
63933.94 15820.209 1.1096762 -0.3449311
63934.75 15820.594 1.1128467 -0.34556894
63935.57 15820.979 1.117969 -0.35051241
63936.39 15821.364 1.1150682 -0.34696924
63937.21 15821.748 1.1167897 -0.34997552
63938.03 15822.133 1.1269649 -0.34919847
63938.85 15822.518 1.1247168 -0.35534012
63939.66 15822.903 1.1338125 -0.35340614
63940.48 15823.288 1.1398882 -0.35059557
63941.30 15823.672 1.143334 -0.33715327
63942.12 15824.057 1.1468712 -0.32810715
63942.94 15824.442 1.149523 -0.33029977
63943.75 15824.827 1.1545731 -0.32054086
63944.57 15825.212 1.1544332 -0.30805944
63945.39 15825.596 1.1521203 -0.30508878
63946.20 15825.981 1.1509712 -0.29494839
63947.02 15826.366 1.1475834 -0.29023195
63947.84 15826.751 1.1448539 -0.28063815
63948.65 15827.135 1.1413138 -0.28144527
63949.47 15827.520 1.1325598 -0.27690632
63950.28 15827.905 1.1265753 -0.27666619
63951.10 15828.290 1.1285066 -0.2745559
63951.91 15828.675 1.1151968 -0.27054267
63952.73 15829.059 1.106948 -0.26899772
63953.55 15829.444 1.1076755 -0.26918073
63954.36 15829.829 1.1029919 -0.27340803
63955.18 15830.214 1.1056243 -0.27239713
63955.99 15830.599 1.1036009 -0.26775643
63956.81 15830.983 1.1036295 -0.27304191
63957.62 15831.368 1.1001001 -0.27052218
63958.44 15831.753 1.0947739 -0.27706037
63959.25 15832.138 1.0913217 -0.278371
63960.07 15832.523 1.0887456 -0.2732543
63960.89 15832.907 1.0938068 -0.27638313
63961.71 15833.292 1.0892458 -0.27911008
63962.52 15833.677 1.0868284 -0.28097574
63963.34 15834.062 1.0850517 -0.2838554
63964.16 15834.447 1.0820241 -0.28117776
63964.97 15834.831 1.0888955 -0.28425828
63965.79 15835.216 1.0843264 -0.28552554
63966.61 15835.601 1.0877801 -0.28487534
63967.42 15835.986 1.0819476 -0.28701822
63968.24 15836.370 1.0837758 -0.28585825
63969.06 15836.755 1.0855958 -0.28619075
63969.87 15837.140 1.0807133 -0.2850698
63970.69 15837.525 1.0816939 -0.28491661
63971.51 15837.910 1.0792787 -0.28646062
63972.32 15838.294 1.0762295 -0.29067681
63973.14 15838.679 1.0800325 -0.2892898
63973.96 15839.064 1.0851975 -0.28837832
63974.78 15839.449 1.0781753 -0.2849967
63975.59 15839.834 1.0779659 -0.28731682
63976.41 15840.218 1.0769213 -0.2881676
63977.23 15840.603 1.0792229 -0.28787824
63978.05 15840.988 1.081587 -0.29568045
63978.87 15841.373 1.0748112 -0.28643245
63979.68 15841.758 1.079783 -0.28412009
63980.50 15842.142 1.0760303 -0.29180802
63981.31 15842.527 1.0773999 -0.29557822
63982.13 15842.912 1.0770965 -0.2938672
63982.94 15843.297 1.0824518 -0.29716432
63983.76 15843.682 1.074752 -0.2984354
63984.57 15844.066 1.0816118 -0.29211046
63985.39 15844.451 1.0750525 -0.29194055
63986.20 15844.836 1.0755646 -0.29296368
63987.02 15845.221 1.076867 -0.29342357
63987.83 15845.605 1.0745811 -0.29479182
63988.65 15845.990 1.0765457 -0.3009944
63989.47 15846.375 1.0741027 -0.28781304
63990.28 15846.760 1.0756062 -0.29409031
63991.10 15847.145 1.082318 -0.2983322
63991.91 15847.529 1.0762679 -0.2962521
63992.73 15847.914 1.0811234 -0.2890375
63993.54 15848.299 1.0805682 -0.29407093
