# Sweep from 15805.349Hz to 15845.308Hz step 0.33299166666667285Hz delay 0.8s
# Excitation 0.001872Vpp attenuator 0 dB
# time(s), freq(Hz), absorption(nA), dispersion(nA)
71405.61 15805.349 2.0836655 -0.36486523
71406.43 15805.682 2.0865727 -0.36307262
71407.24 15806.015 2.0903187 -0.36290328
71408.06 15806.348 2.0907958 -0.36407809
71408.87 15806.681 2.090311 -0.37045925
71409.69 15807.014 2.0854106 -0.36394701
71410.51 15807.347 2.0840971 -0.36238401
71411.32 15807.680 2.0935531 -0.36955271
71412.14 15808.013 2.082862 -0.36708809
71412.96 15808.346 2.0937835 -0.37268762
71413.78 15808.679 2.0848004 -0.369682
71414.59 15809.012 2.0904031 -0.36876014
71415.41 15809.345 2.0864461 -0.36911217
71416.23 15809.678 2.0877158 -0.37544669
71417.05 15810.011 2.086515 -0.38228487
71417.86 15810.344 2.092974 -0.37511046
71418.67 15810.677 2.088726 -0.38029299
71419.49 15811.010 2.086563 -0.3676719
71420.30 15811.343 2.0884606 -0.37661806
71421.12 15811.676 2.0869668 -0.37573645
71421.94 15812.009 2.0924062 -0.37888825
71422.76 15812.342 2.0904527 -0.37708406
71423.58 15812.675 2.0988787 -0.379737
71424.39 15813.008 2.0935768 -0.38604455
71425.21 15813.341 2.0971763 -0.37505842
71426.03 15813.674 2.0955476 -0.38084596
71426.84 15814.007 2.0968191 -0.37849287
71427.66 15814.340 2.1013536 -0.37822051
71428.47 15814.673 2.0992384 -0.38254979
71429.29 15815.006 2.100471 -0.3855499
71430.11 15815.339 2.1030221 -0.3844938
71430.92 15815.672 2.1026312 -0.38749576
71431.74 15816.005 2.0992115 -0.38758435
71432.55 15816.338 2.1073158 -0.39462631
71433.37 15816.671 2.1014384 -0.39085046
71434.19 15817.004 2.1022142 -0.39369701
71435.00 15817.337 2.1110532 -0.39350093
71435.82 15817.670 2.1140902 -0.394967
71436.63 15818.003 2.1190426 -0.40571192
71437.45 15818.336 2.1137266 -0.39552728
71438.27 15818.669 2.117921 -0.39537622
71439.08 15819.002 2.121214 -0.40488862
71439.90 15819.335 2.122883 -0.40909697
71440.71 15819.668 2.1293151 -0.40687479
71441.53 15820.001 2.1311535 -0.40396256
71442.35 15820.334 2.1382546 -0.4117947
71443.16 15820.667 2.1441197 -0.41202449
71443.98 15821.000 2.1520282 -0.4165579
71444.79 15821.333 2.1530543 -0.42069021
71445.61 15821.666 2.1631195 -0.41934317
71446.43 15821.999 2.1699932 -0.41920836
71447.25 15822.332 2.174442 -0.42101564
71448.06 15822.665 2.190239 -0.41690464
71448.88 15822.998 2.2004383 -0.41434228
71449.69 15823.331 2.2113895 -0.4134682
71450.52 15823.664 2.2223705 -0.40502539
71451.33 15823.997 2.2314421 -0.39573976
71452.15 15824.330 2.2426507 -0.37531154
71452.96 15824.663 2.2538154 -0.36146761
71453.78 15824.996 2.2591548 -0.34437284
71454.60 15825.328 2.2658157 -0.32082775
71455.42 15825.661 2.254269 -0.30325774
71456.23 15825.994 2.2496065 -0.29387277
71457.05 15826.327 2.2428026 -0.28007679
71457.87 15826.660 2.2265567 -0.27745531
71458.69 15826.993 2.2157028 -0.26110041
71459.51 15827.326 2.2149948 -0.26162851
71460.32 15827.659 2.2051486 -0.2577201
71461.14 15827.992 2.1878843 -0.24503345
71461.95 15828.325 2.1813867 -0.25303379
71462.77 15828.658 2.1724338 -0.2554705
71463.59 15828.991 2.1622759 -0.25159338
71464.40 15829.324 2.1625801 -0.24723448
71465.22 15829.657 2.1439482 -0.24236232
71466.03 15829.990 2.1479482 -0.25248369
71466.84 15830.323 2.1427293 -0.25167745
71467.66 15830.656 2.1390085 -0.25667987
71468.48 15830.989 2.1332858 -0.25509479
71469.29 15831.322 2.1294152 -0.26316397
71470.11 15831.655 2.1200356 -0.26348062
71470.92 15831.988 2.1140431 -0.26135368
71471.73 15832.321 2.1253197 -0.26712888
71472.55 15832.654 2.1099966 -0.26700897
71473.37 15832.987 2.1088917 -0.27039769
71474.19 15833.320 2.107442 -0.27075845
71475.00 15833.653 2.1085109 -0.27398787
71475.82 15833.986 2.1015874 -0.27368097
71476.64 15834.319 2.1072315 -0.27516725
71477.46 15834.652 2.1065953 -0.27525391
71478.27 15834.985 2.1036685 -0.27938563
71479.09 15835.318 2.1000492 -0.2795897
71479.91 15835.651 2.098576 -0.27970086
71480.73 15835.984 2.1042952 -0.2805603
71481.54 15836.317 2.1022117 -0.28709616
71482.36 15836.650 2.0952371 -0.28505062
71483.17 15836.983 2.0944085 -0.28165354
71483.99 15837.316 2.0997147 -0.28683695
71484.81 15837.649 2.0897353 -0.28885512
71485.62 15837.982 2.095846 -0.28994958
71486.44 15838.315 2.0974692 -0.28678821
71487.26 15838.648 2.094753 -0.28866455
71488.07 15838.981 2.0937955 -0.28613837
71488.89 15839.314 2.0932628 -0.29387434
71489.71 15839.647 2.08952 -0.29602623
71490.53 15839.980 2.0922132 -0.29534223
71491.34 15840.313 2.0872931 -0.29071703
71492.16 15840.646 2.087673 -0.29796155
71492.97 15840.979 2.088286 -0.29731962
71493.79 15841.312 2.0849059 -0.3008968
71494.60 15841.645 2.0892405 -0.30409456
71495.42 15841.978 2.0842122 -0.2998307
71496.24 15842.311 2.0878776 -0.29832924
71497.05 15842.644 2.0840828 -0.30384606
71497.87 15842.977 2.0845514 -0.29584754
71498.68 15843.310 2.0846601 -0.29991114
71499.50 15843.643 2.0836635 -0.30338077
71500.31 15843.976 2.0881257 -0.30316517
71501.12 15844.309 2.0841005 -0.30147018
71501.94 15844.642 2.0833677 -0.29980794
71502.76 15844.975 2.0872053 -0.30467257
71503.57 15845.308 2.084013 -0.30125366
