# Sweep from 15840.999Hz to 15806.329Hz step -0.28891666666666727Hz delay 0.8s
# Excitation 0.003622Vpp attenuator 0 dB
# time(s), freq(Hz), absorption(nA), dispersion(nA)
79212.75 15840.999 4.0884056 -0.30631693
79213.57 15840.710 4.0854798 -0.30608746
79214.38 15840.421 4.0799873 -0.2994274
79215.20 15840.132 4.0847312 -0.29604627
79216.01 15839.843 4.0872887 -0.29594631
79216.83 15839.554 4.0864747 -0.29965113
79217.65 15839.265 4.0835616 -0.29984389
79218.47 15838.977 4.0857772 -0.30301291
79219.28 15838.688 4.086899 -0.29450311
79220.10 15838.399 4.084091 -0.29198193
79220.92 15838.110 4.0913174 -0.29441722
79221.73 15837.821 4.0904883 -0.2878156
79222.55 15837.532 4.0950135 -0.28584509
79223.36 15837.243 4.092818 -0.28882681
79224.18 15836.954 4.0954756 -0.28313033
79225.00 15836.665 4.0985487 -0.28192127
79225.82 15836.376 4.1012336 -0.28381464
79226.63 15836.087 4.102244 -0.27605068
79227.45 15835.798 4.1006429 -0.26848826
79228.26 15835.510 4.1002222 -0.27825274
79229.08 15835.221 4.1063167 -0.27123033
79229.89 15834.932 4.1094772 -0.26562563
79230.71 15834.643 4.1093022 -0.26473603
79231.53 15834.354 4.1106346 -0.26842312
79232.34 15834.065 4.1143649 -0.25915855
79233.16 15833.776 4.1182802 -0.25163652
79233.97 15833.487 4.1195804 -0.25510315
79234.79 15833.198 4.1241442 -0.2506884
79235.60 15832.909 4.1253265 -0.25332815
79236.42 15832.620 4.1341054 -0.2468405
79237.24 15832.332 4.135482 -0.23691018
79238.06 15832.043 4.1341805 -0.23677164
79238.87 15831.754 4.145249 -0.23508332
79239.69 15831.465 4.1432095 -0.22425816
79240.50 15831.176 4.1513454 -0.2296068
79241.32 15830.887 4.1610197 -0.22231359
79242.13 15830.598 4.1643766 -0.21749567
79242.95 15830.309 4.1720168 -0.21270026
79243.76 15830.020 4.1797853 -0.20877845
79244.58 15829.731 4.1840949 -0.2113064
79245.40 15829.442 4.1937319 -0.20865664
79246.21 15829.153 4.1984772 -0.20207293
79247.02 15828.864 4.2091033 -0.19815869
79247.84 15828.576 4.2182714 -0.20077709
79248.65 15828.287 4.2270585 -0.19551676
79249.47 15827.998 4.2357647 -0.19428511
79250.29 15827.709 4.2488123 -0.19048703
79251.12 15827.420 4.2589227 -0.19073863
79251.93 15827.131 4.2724073 -0.19291686
79252.75 15826.842 4.2871598 -0.19089345
79253.57 15826.553 4.2969241 -0.19587078
79254.38 15826.264 4.3085461 -0.19137391
79255.20 15825.975 4.3233272 -0.19643248
79256.01 15825.686 4.3402761 -0.19478621
79256.82 15825.397 4.3558043 -0.20562813
79257.64 15825.109 4.3698378 -0.21194363
79258.46 15824.820 4.3803288 -0.21594883
79259.28 15824.531 4.3959139 -0.22828394
79260.10 15824.242 4.4129733 -0.23198584
79260.91 15823.953 4.4168055 -0.24519255
79261.73 15823.664 4.4354883 -0.26329556
79262.54 15823.375 4.4498311 -0.27262143
79263.36 15823.086 4.4586704 -0.29449913
79264.17 15822.797 4.4730191 -0.31907388
79264.99 15822.508 4.4813205 -0.35274732
79265.80 15822.219 4.4800922 -0.38914413
79266.61 15821.931 4.4746498 -0.44235549
79267.43 15821.642 4.4162812 -0.53001014
79268.24 15821.353 4.2821353 -0.56815395
79269.06 15821.064 4.2371735 -0.561837
79269.87 15820.775 4.2141633 -0.56207602
79270.69 15820.486 4.1942899 -0.55328462
79271.51 15820.197 4.1759827 -0.54715827
79272.33 15819.908 4.1634894 -0.54296197
79273.14 15819.619 4.1594176 -0.5360676
79273.95 15819.330 4.1553353 -0.53151325
79274.77 15819.041 4.1383323 -0.51973956
79275.59 15818.752 4.1426983 -0.52429812
79276.40 15818.463 4.1339904 -0.51912616
79277.22 15818.175 4.1281014 -0.51387678
79278.04 15817.886 4.1291778 -0.50924456
79278.85 15817.597 4.1227663 -0.50951542
79279.67 15817.308 4.1192461 -0.5076821
79280.48 15817.019 4.115976 -0.50086408
79281.30 15816.730 4.1106546 -0.49475074
79282.12 15816.441 4.1084841 -0.49280777
79282.94 15816.152 4.1094022 -0.48764355
79283.75 15815.863 4.1055159 -0.49309284
79284.57 15815.574 4.1060325 -0.48333925
79285.38 15815.285 4.1038156 -0.48067142
79286.20 15814.996 4.0988498 -0.47509081
79287.02 15814.708 4.0951873 -0.47771113
79287.83 15814.419 4.0976483 -0.48124343
79288.65 15814.130 4.0897571 -0.4732116
79289.46 15813.841 4.1000089 -0.47196212
79290.28 15813.552 4.0912896 -0.47555946
79291.09 15813.263 4.0933 -0.46787028
79291.91 15812.974 4.0914383 -0.47042312
79292.73 15812.685 4.0877981 -0.47176306
79293.54 15812.396 4.0839818 -0.46567814
79294.36 15812.107 4.0841674 -0.46075348
79295.17 15811.818 4.0927353 -0.46539017
79295.99 15811.530 4.0839259 -0.45773339
79296.80 15811.241 4.079177 -0.45745008
79297.62 15810.952 4.0790123 -0.45988671
79298.44 15810.663 4.0861282 -0.45813485
79299.25 15810.374 4.0815457 -0.45905549
79300.07 15810.085 4.0813761 -0.45401006
79300.88 15809.796 4.0800078 -0.45183413
79301.70 15809.507 4.075177 -0.45244613
79302.52 15809.218 4.0802252 -0.44728506
79303.33 15808.929 4.0845007 -0.44899704
79304.15 15808.640 4.0790492 -0.45229893
79304.96 15808.351 4.0771661 -0.44492725
79305.78 15808.062 4.072223 -0.44712363
79306.60 15807.774 4.0781056 -0.44355639
79307.42 15807.485 4.077885 -0.44463206
79308.24 15807.196 4.0769496 -0.43943137
79309.05 15806.907 4.0757918 -0.43905573
79309.87 15806.618 4.0765967 -0.44080932
79310.68 15806.329 4.0748228 -0.44078277
