# Sweep from 15836.081Hz to 15815.590Hz step -0.1707583333333332Hz delay 0.9s
# Excitation 0.001779Vpp attenuator 0 dB
# time(s), freq(Hz), absorption(nA), dispersion(nA)
10720.77 15836.081 1.9912929 -0.27211053
10721.69 15835.910 1.9901006 -0.26934896
10722.61 15835.739 1.992217 -0.26638958
10723.52 15835.569 1.9892136 -0.26663162
10724.44 15835.398 1.9887148 -0.26685257
10725.35 15835.227 1.9927402 -0.26551515
10726.27 15835.056 1.9978652 -0.26088446
10727.19 15834.886 1.9968738 -0.26190085
10728.10 15834.715 1.9965819 -0.26259971
10729.02 15834.544 1.9978343 -0.25883509
10729.93 15834.373 1.9955003 -0.26072635
10730.85 15834.203 1.9970487 -0.25700226
10731.77 15834.032 1.9991028 -0.25076662
10732.68 15833.861 2.0016926 -0.25488347
10733.59 15833.690 1.9990346 -0.25431282
10734.51 15833.520 2.0018599 -0.25101224
10735.42 15833.349 2.0070418 -0.24908343
10736.34 15833.178 2.0042312 -0.24569974
10737.25 15833.007 2.0045466 -0.24150415
10738.17 15832.837 2.0091341 -0.24070991
10739.09 15832.666 2.0090913 -0.23833135
10740.00 15832.495 2.0113459 -0.23654042
10740.92 15832.324 2.013842 -0.23607132
10741.84 15832.154 2.0102277 -0.22991499
10742.76 15831.983 2.0173707 -0.22711849
10743.68 15831.812 2.0171694 -0.22812455
10744.60 15831.641 2.022327 -0.22548507
10745.51 15831.471 2.0195173 -0.22162236
10746.43 15831.300 2.0307314 -0.21752157
10747.35 15831.129 2.0325963 -0.21341158
10748.27 15830.958 2.0346049 -0.21476457
10749.18 15830.787 2.038701 -0.21011428
10750.10 15830.617 2.0406367 -0.21222128
10751.02 15830.446 2.0490329 -0.20136554
10751.93 15830.275 2.0545035 -0.19783009
10752.84 15830.104 2.0460318 -0.19189426
10753.76 15829.934 2.0598404 -0.19731547
10754.67 15829.763 2.0668451 -0.19360418
10755.58 15829.592 2.0789637 -0.18545532
10756.50 15829.421 2.0881907 -0.18292489
10757.42 15829.251 2.0847576 -0.18202199
10758.34 15829.080 2.0877592 -0.18712412
10759.25 15828.909 2.0988057 -0.17753554
10760.17 15828.738 2.1133051 -0.17727295
10761.08 15828.568 2.1159847 -0.17300313
10761.99 15828.397 2.12703 -0.16962511
10762.91 15828.226 2.1360927 -0.16724066
10763.82 15828.055 2.1439448 -0.17194917
10764.74 15827.885 2.1540761 -0.16991757
10765.66 15827.714 2.1656708 -0.17461511
10766.58 15827.543 2.1798769 -0.16493264
10767.49 15827.372 2.1884487 -0.16817474
10768.41 15827.202 2.1983089 -0.16722426
10769.32 15827.031 2.2213926 -0.17395043
10770.25 15826.860 2.2246193 -0.1803534
10771.16 15826.689 2.2381139 -0.17785545
10772.08 15826.519 2.2504739 -0.19149971
10772.99 15826.348 2.2602062 -0.19740362
10773.91 15826.177 2.274792 -0.20336167
10774.83 15826.006 2.2846411 -0.21441031
10775.74 15825.836 2.2935646 -0.22537292
10776.66 15825.665 2.3011169 -0.22827784
10777.58 15825.494 2.3128716 -0.25603944
10778.50 15825.323 2.330574 -0.26542941
10779.41 15825.152 2.3271498 -0.27965552
10780.33 15824.982 2.3294285 -0.30762072
10781.25 15824.811 2.3334826 -0.34616355
10782.16 15824.640 2.3243392 -0.41058243
10783.08 15824.469 2.2394086 -0.49106933
10784.00 15824.299 2.0955704 -0.48825854
10784.91 15824.128 2.0789525 -0.47420002
10785.83 15823.957 2.0689993 -0.47435071
10786.74 15823.786 2.0541972 -0.46688905
10787.66 15823.616 2.0518887 -0.46393362
10788.58 15823.445 2.0439122 -0.45957768
10789.49 15823.274 2.0415428 -0.45552645
10790.41 15823.103 2.0368905 -0.44764408
10791.33 15822.933 2.0306129 -0.43919289
10792.24 15822.762 2.0237853 -0.44186589
10793.16 15822.591 2.0214645 -0.44466168
10794.08 15822.420 2.0149603 -0.4311554
10795.00 15822.250 2.0127686 -0.43641663
10795.92 15822.079 2.0128198 -0.43057179
10796.84 15821.908 2.0148227 -0.43107539
10797.75 15821.737 2.0145942 -0.42581129
10798.67 15821.567 2.0078976 -0.42072048
10799.58 15821.396 2.006771 -0.42005831
10800.50 15821.225 2.0080395 -0.41976327
10801.42 15821.054 2.0112191 -0.41888345
10802.34 15820.884 2.0061 -0.41527665
10803.25 15820.713 2.0028119 -0.4105394
10804.17 15820.542 2.0006669 -0.4097912
10805.08 15820.371 2.0001753 -0.41443803
10806.00 15820.200 1.9984107 -0.40727917
10806.91 15820.030 2.0033542 -0.40760725
10807.83 15819.859 1.9920217 -0.40595359
10808.74 15819.688 2.0004336 -0.40238814
10809.66 15819.517 1.9976517 -0.40302717
10810.57 15819.347 1.9914435 -0.40092607
10811.49 15819.176 1.9910804 -0.39596651
10812.41 15819.005 1.9944707 -0.39984928
10813.32 15818.834 1.9896668 -0.40121887
10814.24 15818.664 1.9943498 -0.40215201
10815.16 15818.493 1.9924073 -0.39934935
10816.08 15818.322 1.9903719 -0.392065
10816.99 15818.151 1.9919601 -0.38749914
10817.91 15817.981 1.9854431 -0.39221945
10818.82 15817.810 1.989365 -0.38777989
10819.74 15817.639 1.987826 -0.38943062
10820.66 15817.468 1.9862546 -0.39030567
10821.57 15817.298 1.9896634 -0.38295391
10822.48 15817.127 1.9910078 -0.39002722
10823.40 15816.956 1.9866782 -0.38723923
10824.31 15816.785 1.9906302 -0.38383598
10825.23 15816.615 1.9903425 -0.39022117
10826.14 15816.444 1.9881136 -0.38356441
10827.06 15816.273 1.9904576 -0.38690968
10827.98 15816.102 1.9863885 -0.38772421
10828.89 15815.932 1.9854997 -0.38154641
10829.81 15815.761 1.9851468 -0.38190367
10830.73 15815.590 1.9810689 -0.377059
