# Sweep from 15815.634Hz to 15837.821Hz step 0.18489166666666582Hz delay 0.9s
# Excitation 0.001247Vpp attenuator 0 dB
# time(s), freq(Hz), absorption(nA), dispersion(nA)
9056.55 15815.634 1.3880143 -0.35529956
9057.47 15815.819 1.3926198 -0.35352204
9058.39 15816.004 1.3927302 -0.354988
9059.30 15816.189 1.3944168 -0.35878651
9060.22 15816.374 1.3898791 -0.35408877
9061.14 15816.558 1.3922534 -0.35583739
9062.05 15816.743 1.3988011 -0.35662003
9062.97 15816.928 1.3885231 -0.35344939
9063.89 15817.113 1.3969371 -0.35558622
9064.80 15817.298 1.3969094 -0.35633315
9065.72 15817.483 1.3968091 -0.36106547
9066.63 15817.668 1.3979683 -0.35695308
9067.55 15817.853 1.3946304 -0.36133676
9068.46 15818.038 1.3948368 -0.35729207
9069.38 15818.222 1.3946567 -0.36079436
9070.30 15818.407 1.3962646 -0.36291252
9071.21 15818.592 1.3976386 -0.36429159
9072.13 15818.777 1.3932981 -0.36451311
9073.05 15818.962 1.3940486 -0.36529019
9073.97 15819.147 1.3954383 -0.36606616
9074.88 15819.332 1.3961489 -0.36971898
9075.80 15819.517 1.3976602 -0.36656704
9076.72 15819.702 1.4031303 -0.36489706
9077.63 15819.887 1.4043002 -0.3710897
9078.55 15820.071 1.4012803 -0.36535818
9079.46 15820.256 1.4034196 -0.37266821
9080.38 15820.441 1.4035786 -0.37561895
9081.30 15820.626 1.402383 -0.37335559
9082.21 15820.811 1.4073324 -0.37390336
9083.13 15820.996 1.4056277 -0.37427469
9084.05 15821.181 1.411561 -0.37668528
9084.96 15821.366 1.4108678 -0.38167079
9085.88 15821.551 1.415274 -0.38623966
9086.80 15821.735 1.4118423 -0.37985984
9087.72 15821.920 1.4132048 -0.38481488
9088.63 15822.105 1.4179066 -0.38271415
9089.55 15822.290 1.4220102 -0.38950276
9090.47 15822.475 1.4233324 -0.38717548
9091.39 15822.660 1.4210211 -0.38432603
9092.30 15822.845 1.4286875 -0.39044176
9093.22 15823.030 1.4262988 -0.39347978
9094.14 15823.215 1.4251235 -0.39554862
9095.05 15823.399 1.4348213 -0.39906439
9095.97 15823.584 1.436997 -0.40575813
9096.89 15823.769 1.4391999 -0.40720454
9097.80 15823.954 1.4484251 -0.40957005
9098.72 15824.139 1.4537604 -0.41472779
9099.63 15824.324 1.4548013 -0.41585866
9100.55 15824.509 1.4592172 -0.41655096
9101.46 15824.694 1.4733511 -0.41637392
9102.38 15824.879 1.4815947 -0.42091634
9103.29 15825.063 1.4991281 -0.41739943
9104.21 15825.248 1.5035963 -0.41663981
9105.13 15825.433 1.5298886 -0.41302778
9106.04 15825.618 1.5482728 -0.39859617
9106.96 15825.803 1.5767667 -0.38864783
9107.88 15825.988 1.5953477 -0.3713144
9108.80 15826.173 1.6038297 -0.34818251
9109.71 15826.358 1.6095489 -0.31339704
9110.62 15826.543 1.6099018 -0.30476494
9111.54 15826.728 1.6016409 -0.28263477
9112.46 15826.912 1.5969875 -0.27262104
9113.38 15827.097 1.5773736 -0.25021163
9114.29 15827.282 1.5726795 -0.23871985
9115.21 15827.467 1.5624495 -0.22793716
9116.12 15827.652 1.5440419 -0.22447476
9117.04 15827.837 1.5435837 -0.22196059
9117.95 15828.022 1.5348552 -0.22448033
9118.87 15828.207 1.5225572 -0.22149528
9119.78 15828.392 1.5158049 -0.20690943
9120.70 15828.576 1.4993435 -0.21634268
9121.61 15828.761 1.4862098 -0.21257526
9122.53 15828.946 1.4837892 -0.21483213
9123.45 15829.131 1.4776945 -0.21535544
9124.36 15829.316 1.4710523 -0.21486063
9125.28 15829.501 1.4632961 -0.22256474
9126.20 15829.686 1.4569277 -0.22267086
9127.11 15829.871 1.4516396 -0.22150259
9128.03 15830.056 1.4436953 -0.22744462
9128.95 15830.240 1.4428471 -0.23097293
9129.87 15830.425 1.4400371 -0.23401275
9130.78 15830.610 1.4360644 -0.22794693
9131.70 15830.795 1.4272637 -0.23650824
9132.61 15830.980 1.4235102 -0.23760462
9133.53 15831.165 1.4229248 -0.23836895
9134.45 15831.350 1.4260678 -0.24761874
9135.37 15831.535 1.4193346 -0.2456915
9136.28 15831.720 1.4154584 -0.2495714
9137.20 15831.904 1.417711 -0.24798629
9138.12 15832.089 1.4153908 -0.2456147
9139.03 15832.274 1.4112915 -0.25398813
9139.95 15832.459 1.4088544 -0.24982202
9140.87 15832.644 1.4078886 -0.26008667
9141.78 15832.829 1.4071996 -0.26063458
9142.70 15833.014 1.4108605 -0.25712916
9143.62 15833.199 1.4116407 -0.26542784
9144.54 15833.384 1.398724 -0.26276533
9145.46 15833.568 1.4059823 -0.25867064
9146.37 15833.753 1.4030337 -0.26070686
9147.29 15833.938 1.3992959 -0.26888904
9148.20 15834.123 1.3980957 -0.26583419
9149.12 15834.308 1.3979225 -0.26632455
9150.03 15834.493 1.3985629 -0.27299538
9150.95 15834.678 1.4002727 -0.27325987
9151.87 15834.863 1.3984304 -0.27096877
9152.79 15835.048 1.399733 -0.26808667
9153.70 15835.233 1.3984802 -0.27107836
9154.62 15835.417 1.3957281 -0.2739618
9155.53 15835.602 1.3966048 -0.27565838
9156.45 15835.787 1.3992205 -0.27323466
9157.37 15835.972 1.394476 -0.27700884
9158.28 15836.157 1.3946631 -0.28496993
9159.20 15836.342 1.4003328 -0.27839926
9160.12 15836.527 1.3973251 -0.27890201
9161.03 15836.712 1.394731 -0.28188299
9161.95 15836.897 1.3953313 -0.27493874
9162.87 15837.081 1.3987739 -0.28120101
9163.79 15837.266 1.3872545 -0.28689456
9164.70 15837.451 1.3889464 -0.28549084
9165.62 15837.636 1.3952042 -0.28231261
9166.54 15837.821 1.3947955 -0.28595528
