# Sweep from 15848.731Hz to 15801.634Hz step -0.39247499999999796Hz delay 0.8s
# Excitation 0.001127Vpp attenuator 0 dB
# time(s), freq(Hz), absorption(nA), dispersion(nA)
65180.24 15848.731 1.2531881 -0.29138366
65181.06 15848.339 1.2536128 -0.29509241
65181.87 15847.946 1.2564855 -0.29826907
65182.69 15847.554 1.2541482 -0.29655433
65183.51 15847.161 1.2519411 -0.29369235
65184.32 15846.769 1.2525411 -0.29608299
65185.14 15846.376 1.2507857 -0.29506938
65185.95 15845.984 1.2535561 -0.29385478
65186.77 15845.591 1.2556891 -0.29993004
65187.59 15845.199 1.254294 -0.29768623
65188.40 15844.806 1.255395 -0.29751379
65189.21 15844.414 1.2570569 -0.29721704
65190.03 15844.021 1.250007 -0.29544788
65190.85 15843.629 1.2578824 -0.29710651
65191.66 15843.236 1.2586102 -0.29198085
65192.48 15842.844 1.2514386 -0.29113133
65193.30 15842.451 1.2547648 -0.29731549
65194.11 15842.059 1.2540954 -0.29642521
65194.93 15841.666 1.2546386 -0.29118198
65195.75 15841.274 1.258641 -0.28832733
65196.57 15840.881 1.2561436 -0.28956731
65197.39 15840.489 1.2495489 -0.29483496
65198.20 15840.097 1.2509499 -0.2906844
65199.02 15839.704 1.2555495 -0.29052919
65199.83 15839.312 1.2544178 -0.28392597
65200.65 15838.919 1.2546195 -0.28847452
65201.46 15838.527 1.2604736 -0.289301
65202.28 15838.134 1.257742 -0.28766556
65203.10 15837.742 1.2578745 -0.2917715
65203.91 15837.349 1.2608963 -0.28268482
65204.73 15836.957 1.2610542 -0.28925294
65205.54 15836.564 1.252265 -0.28847853
65206.35 15836.172 1.2605143 -0.28698005
65207.17 15835.779 1.2597606 -0.28487239
65207.99 15835.387 1.2604602 -0.28489899
65208.81 15834.994 1.2627909 -0.27880733
65209.63 15834.602 1.263835 -0.2802318
65210.45 15834.209 1.2657905 -0.28203303
65211.26 15833.817 1.2671335 -0.28286794
65212.08 15833.424 1.2624197 -0.27808309
65212.90 15833.032 1.2671154 -0.27898227
65213.71 15832.640 1.271736 -0.27615764
65214.53 15832.247 1.2711132 -0.27603465
65215.34 15831.855 1.2749613 -0.27762056
65216.16 15831.462 1.2718737 -0.26974482
65216.98 15831.070 1.2790243 -0.27294308
65217.80 15830.677 1.2790244 -0.27287209
65218.61 15830.285 1.2865725 -0.27098679
65219.43 15829.892 1.2904227 -0.26305423
65220.25 15829.500 1.2928859 -0.26511768
65221.07 15829.107 1.2966536 -0.26787606
65221.88 15828.715 1.3043792 -0.26523014
65222.70 15828.322 1.3093151 -0.26702773
65223.51 15827.930 1.3161178 -0.27117608
65224.33 15827.537 1.3199696 -0.27146305
65225.14 15827.145 1.3313953 -0.27770466
65225.96 15826.752 1.3347822 -0.28012303
65226.77 15826.360 1.3345618 -0.28618237
65227.59 15825.967 1.3520659 -0.29552942
65228.41 15825.575 1.3467601 -0.30890132
65229.23 15825.182 1.3502118 -0.31594442
65230.04 15824.790 1.3443733 -0.32309563
65230.86 15824.398 1.337287 -0.33858646
65231.67 15824.005 1.3378641 -0.34841807
65232.49 15823.613 1.3284408 -0.34911324
65233.31 15823.220 1.3243456 -0.35293471
65234.13 15822.828 1.3155041 -0.35562365
65234.95 15822.435 1.3110082 -0.36320591
65235.76 15822.043 1.3071815 -0.35688922
65236.58 15821.650 1.2994243 -0.36050685
65237.40 15821.258 1.2968874 -0.36373055
65238.21 15820.865 1.2928188 -0.36154822
65239.02 15820.473 1.2897065 -0.36357028
65239.84 15820.080 1.2853097 -0.36254659
65240.65 15819.688 1.2816781 -0.360749
65241.47 15819.295 1.2785483 -0.35611762
65242.29 15818.903 1.2751116 -0.3507364
65243.10 15818.510 1.2715225 -0.35545068
65243.92 15818.118 1.2680467 -0.36029209
65244.73 15817.725 1.2778946 -0.35303387
65245.55 15817.333 1.2702504 -0.34218471
65246.37 15816.941 1.2682431 -0.34947516
65247.18 15816.548 1.2655476 -0.35385887
65247.99 15816.156 1.2640498 -0.34752833
65248.81 15815.763 1.2636403 -0.34798086
65249.63 15815.371 1.2651431 -0.34855501
65250.45 15814.978 1.2620521 -0.34137619
65251.27 15814.586 1.2588279 -0.34502168
65252.08 15814.193 1.2625565 -0.34490907
65252.90 15813.801 1.2645819 -0.34318722
65253.72 15813.408 1.2636974 -0.3380195
65254.53 15813.016 1.2606746 -0.33921637
65255.35 15812.623 1.2637109 -0.34492885
65256.17 15812.231 1.257927 -0.34003025
65256.99 15811.838 1.2606847 -0.33750916
65257.81 15811.446 1.2612268 -0.33998487
65258.62 15811.053 1.2586871 -0.3425736
65259.43 15810.661 1.2583682 -0.34149667
65260.25 15810.268 1.2567352 -0.339911
65261.07 15809.876 1.2582057 -0.3345134
65261.89 15809.484 1.2541708 -0.33304624
65262.70 15809.091 1.2570215 -0.33632625
65263.52 15808.699 1.258771 -0.33418746
65264.33 15808.306 1.2567888 -0.33263356
65265.15 15807.914 1.2555485 -0.33514183
65265.97 15807.521 1.2555612 -0.34164449
65266.79 15807.129 1.2601898 -0.33130567
65267.60 15806.736 1.2594414 -0.33408224
65268.42 15806.344 1.2565446 -0.33196591
65269.24 15805.951 1.2521587 -0.33007456
65270.05 15805.559 1.2535157 -0.33355244
65270.87 15805.166 1.2504772 -0.33347621
65271.68 15804.774 1.2572956 -0.33153583
65272.50 15804.381 1.2490175 -0.33478344
65273.31 15803.989 1.256805 -0.32678207
65274.13 15803.596 1.2489215 -0.33504978
65274.95 15803.204 1.2473533 -0.33151545
65275.76 15802.811 1.2481862 -0.32876912
65276.58 15802.419 1.2519898 -0.33285599
65277.39 15802.026 1.2510034 -0.33224228
65278.21 15801.634 1.2507847 -0.33193399
