# Sweep from 15837.895Hz to 15807.806Hz step -0.2507416666666662Hz delay 0.9s
# Excitation 0.002671Vpp attenuator 0 dB
# time(s), freq(Hz), absorption(nA), dispersion(nA)
12495.73 15837.895 2.9878584 -0.27434666
12496.64 15837.644 2.9838977 -0.27245758
12497.56 15837.394 2.9823823 -0.28284683
12498.47 15837.143 2.9888204 -0.27147567
12499.38 15836.892 2.9826256 -0.26759255
12500.30 15836.641 2.9869732 -0.26535864
12501.21 15836.391 2.9874552 -0.26296144
12502.13 15836.140 2.986103 -0.25738672
12503.04 15835.889 2.9900689 -0.25733661
12503.96 15835.638 2.9865741 -0.25585592
12504.88 15835.388 2.989128 -0.25375633
12505.79 15835.137 2.9903022 -0.25502618
12506.71 15834.886 2.9940588 -0.25098117
12507.63 15834.635 2.9952068 -0.24658584
12508.54 15834.385 2.9968162 -0.24358067
12509.46 15834.134 3.0056058 -0.2398034
12510.38 15833.883 2.9986254 -0.23807743
12511.29 15833.632 3.0013252 -0.23235005
12512.21 15833.382 3.0044282 -0.22565364
12513.12 15833.131 3.0091662 -0.22091763
12514.04 15832.880 3.0126998 -0.22219861
12514.96 15832.629 3.0161407 -0.21454861
12515.87 15832.379 3.0222077 -0.21100537
12516.79 15832.128 3.0236131 -0.20762886
12517.70 15831.877 3.0265276 -0.20311023
12518.62 15831.626 3.0290557 -0.19549452
12519.53 15831.376 3.0345409 -0.19332948
12520.45 15831.125 3.0401036 -0.18846306
12521.37 15830.874 3.0463805 -0.18347566
12522.29 15830.623 3.0547087 -0.1734868
12523.20 15830.373 3.054869 -0.1721949
12524.12 15830.122 3.0643998 -0.16527932
12525.03 15829.871 3.0717658 -0.15463941
12525.95 15829.621 3.0827725 -0.14228355
12526.87 15829.370 3.0888561 -0.14220423
12527.78 15829.119 3.0962171 -0.1360865
12528.70 15828.868 3.1029349 -0.13094844
12529.62 15828.618 3.1180032 -0.12318571
12530.53 15828.367 3.1296934 -0.11061618
12531.44 15828.116 3.1421396 -0.11117847
12532.36 15827.865 3.1498112 -0.10486632
12533.28 15827.615 3.1636864 -0.095160267
12534.20 15827.364 3.1770348 -0.090967823
12535.11 15827.113 3.1881036 -0.090185914
12536.03 15826.862 3.197488 -0.085437392
12536.95 15826.612 3.2166461 -0.081502478
12537.86 15826.361 3.2295043 -0.080917587
12538.78 15826.110 3.2451965 -0.074345706
12539.70 15825.859 3.2530679 -0.07591678
12540.62 15825.609 3.2629082 -0.081137962
12541.53 15825.358 3.2760779 -0.077505085
12542.45 15825.107 3.2959349 -0.072862576
12543.37 15824.856 3.2969672 -0.08030289
12544.28 15824.606 3.3168844 -0.08448891
12545.20 15824.355 3.3275924 -0.083652488
12546.12 15824.104 3.3427427 -0.083132228
12547.03 15823.853 3.349576 -0.093168715
12547.95 15823.603 3.3684219 -0.10044889
12548.86 15823.352 3.3800436 -0.099578777
12549.78 15823.101 3.3920987 -0.1107973
12550.69 15822.851 3.4046627 -0.120998
12551.61 15822.600 3.4212153 -0.13618482
12552.53 15822.349 3.4370969 -0.15596233
12553.44 15822.098 3.4477021 -0.1779118
12554.36 15821.848 3.4671039 -0.21574219
12555.27 15821.597 3.477792 -0.24362618
12556.19 15821.346 3.4834225 -0.30220858
12557.10 15821.095 3.4885727 -0.35457685
12558.02 15820.845 3.46103 -0.48836012
12558.93 15820.594 3.0063782 -0.47914364
12559.84 15820.343 3.003496 -0.47494413
12560.76 15820.092 3.0020374 -0.46279519
12561.67 15819.842 2.9908972 -0.46626062
12562.59 15819.591 2.9975627 -0.46435119
12563.51 15819.340 2.9949449 -0.45892483
12564.43 15819.089 2.9958267 -0.45756784
12565.34 15818.839 2.9850105 -0.45319197
12566.26 15818.588 2.9927512 -0.44560011
12567.18 15818.337 2.9926352 -0.44452705
12568.10 15818.086 2.9845539 -0.44722668
12569.01 15817.836 2.9891914 -0.44072931
12569.93 15817.585 2.9847572 -0.43873189
12570.84 15817.334 2.985478 -0.44032785
12571.76 15817.083 2.9786688 -0.43989587
12572.67 15816.833 2.9831713 -0.43635433
12573.59 15816.582 2.9840623 -0.43591712
12574.50 15816.331 2.9793594 -0.4335671
12575.42 15816.080 2.9828625 -0.427342
12576.34 15815.830 2.9762537 -0.42482083
12577.25 15815.579 2.98447 -0.42765666
12578.16 15815.328 2.9793696 -0.42462972
12579.08 15815.078 2.9806486 -0.4262844
12580.00 15814.827 2.9804964 -0.42231306
12580.92 15814.576 2.9752007 -0.4244273
12581.83 15814.325 2.981255 -0.42044678
12582.74 15814.075 2.9785647 -0.42632516
12583.66 15813.824 2.9801283 -0.42186184
12584.58 15813.573 2.9808537 -0.41872812
12585.49 15813.322 2.9780824 -0.4145864
12586.41 15813.072 2.9753223 -0.41869646
12587.32 15812.821 2.9765517 -0.40895699
12588.24 15812.570 2.9770074 -0.41411172
12589.16 15812.319 2.9710923 -0.41407785
12590.07 15812.069 2.9741996 -0.40753901
12590.99 15811.818 2.9732646 -0.41009923
12591.90 15811.567 2.9766256 -0.41049267
12592.82 15811.316 2.981011 -0.40640964
12593.74 15811.066 2.974122 -0.41033849
12594.65 15810.815 2.9762834 -0.40334658
12595.57 15810.564 2.9740745 -0.40803351
12596.49 15810.313 2.9702876 -0.40611909
12597.40 15810.063 2.9758892 -0.40772389
12598.32 15809.812 2.9711211 -0.40242125
12599.24 15809.561 2.9766036 -0.40954853
12600.15 15809.310 2.9749626 -0.40580807
12601.07 15809.060 2.9767173 -0.40443538
12601.98 15808.809 2.9715907 -0.40095168
12602.90 15808.558 2.973853 -0.39769452
12603.82 15808.307 2.9765654 -0.4047254
12604.73 15808.057 2.9705441 -0.39932061
12605.64 15807.806 2.9720513 -0.39960983
