# Sweep from 15805.804Hz to 15840.356Hz step 0.28793333333333065Hz delay 0.8s
# Excitation 0.004009Vpp attenuator 0 dB
# time(s), freq(Hz), absorption(nA), dispersion(nA)
80300.10 15805.804 4.5213606 -0.45564127
80300.92 15806.092 4.5199572 -0.45285714
80301.74 15806.380 4.521256 -0.4581471
80302.55 15806.668 4.5249953 -0.4671744
80303.37 15806.956 4.5293227 -0.4600027
80304.19 15807.244 4.5233387 -0.45811129
80305.00 15807.532 4.5245979 -0.45731676
80305.82 15807.820 4.5272127 -0.45901751
80306.63 15808.107 4.5293687 -0.46471439
80307.45 15808.395 4.5252173 -0.46346941
80308.26 15808.683 4.5258753 -0.46671855
80309.08 15808.971 4.5291017 -0.46628554
80309.90 15809.259 4.5280635 -0.46196672
80310.71 15809.547 4.5297502 -0.46791851
80311.53 15809.835 4.5283978 -0.46822623
80312.35 15810.123 4.5284819 -0.47438982
80313.16 15810.411 4.529646 -0.47426431
80313.98 15810.699 4.5314187 -0.47546018
80314.80 15810.987 4.5322113 -0.47729901
80315.61 15811.275 4.533314 -0.47486438
80316.43 15811.563 4.5330089 -0.48075003
80317.24 15811.851 4.5333504 -0.48360147
80318.06 15812.139 4.5375746 -0.48226667
80318.88 15812.426 4.5366678 -0.48266054
80319.70 15812.714 4.5357351 -0.48707676
80320.51 15813.002 4.5363613 -0.49175543
80321.33 15813.290 4.5410065 -0.48764963
80322.15 15813.578 4.5412694 -0.49146433
80322.96 15813.866 4.5379234 -0.49447948
80323.78 15814.154 4.5433812 -0.49429013
80324.59 15814.442 4.5434513 -0.49678516
80325.41 15814.730 4.5452744 -0.50055513
80326.23 15815.018 4.5489974 -0.50670468
80327.04 15815.306 4.5463585 -0.50319301
80327.86 15815.594 4.552131 -0.5023328
80328.68 15815.882 4.5520769 -0.51339111
80329.49 15816.170 4.5555612 -0.50919374
80330.31 15816.458 4.5604497 -0.51521937
80331.13 15816.745 4.5569341 -0.51977696
80331.94 15817.033 4.5670586 -0.52708612
80332.76 15817.321 4.5751162 -0.52996751
80333.57 15817.609 4.5698948 -0.52390556
80334.39 15817.897 4.5749402 -0.53638905
80335.21 15818.185 4.582289 -0.53837402
80336.02 15818.473 4.5884044 -0.54478772
80336.84 15818.761 4.5876263 -0.54995417
80337.66 15819.049 4.5989846 -0.55185666
80338.48 15819.337 4.6067821 -0.55666385
80339.29 15819.625 4.6132573 -0.56557991
80340.11 15819.913 4.6311943 -0.57173855
80340.93 15820.201 4.649004 -0.57496749
80341.75 15820.489 4.6650671 -0.58366197
80342.56 15820.777 4.697054 -0.5982738
80343.38 15821.064 4.7546459 -0.60719105
80344.19 15821.352 4.9182449 -0.50223412
80345.01 15821.640 4.9676205 -0.31298194
80345.83 15821.928 4.9586129 -0.28977661
80346.65 15822.216 4.9494374 -0.26875844
80347.46 15822.504 4.9393698 -0.25069289
80348.27 15822.792 4.93069 -0.24171649
80349.09 15823.080 4.9176142 -0.22596244
80349.91 15823.368 4.901477 -0.21271198
80350.72 15823.656 4.8894954 -0.19975667
80351.54 15823.944 4.8793063 -0.20154943
80352.35 15824.232 4.8600305 -0.1858037
80353.17 15824.520 4.8491579 -0.18226075
80353.99 15824.808 4.8336015 -0.17832299
80354.80 15825.096 4.8169863 -0.18171073
80355.62 15825.383 4.8024363 -0.17575097
80356.44 15825.671 4.7869098 -0.17625464
80357.26 15825.959 4.7740823 -0.16611604
80358.07 15826.247 4.7689869 -0.16953547
80358.89 15826.535 4.7525687 -0.17460542
80359.70 15826.823 4.7446015 -0.16923794
80360.52 15827.111 4.7202611 -0.17976259
80361.34 15827.399 4.7170006 -0.17806755
80362.15 15827.687 4.7029503 -0.18128613
80362.97 15827.975 4.691547 -0.18138752
80363.79 15828.263 4.6761306 -0.18048625
80364.60 15828.551 4.6717728 -0.18811912
80365.42 15828.839 4.6629193 -0.19187351
80366.24 15829.127 4.6494324 -0.19338871
80367.06 15829.415 4.6502159 -0.19541282
80367.87 15829.702 4.6434689 -0.202012
80368.69 15829.990 4.6276732 -0.20204176
80369.51 15830.278 4.6272539 -0.20763123
80370.33 15830.566 4.6184387 -0.21294387
80371.14 15830.854 4.6138175 -0.21978211
80371.96 15831.142 4.6135824 -0.22077649
80372.77 15831.430 4.5985475 -0.22258205
80373.59 15831.718 4.5958095 -0.23087949
80374.41 15832.006 4.5919992 -0.2323233
80375.22 15832.294 4.5819847 -0.24101828
80376.04 15832.582 4.5829997 -0.24064209
80376.86 15832.870 4.5841184 -0.24920107
80377.67 15833.158 4.5772808 -0.25054794
80378.49 15833.446 4.5691986 -0.24682774
80379.31 15833.734 4.5688521 -0.25315993
80380.12 15834.021 4.5669117 -0.257197
80380.94 15834.309 4.5660668 -0.25883824
80381.76 15834.597 4.5578349 -0.26512132
80382.57 15834.885 4.5586839 -0.25802299
80383.38 15835.173 4.556236 -0.27030353
80384.20 15835.461 4.5523461 -0.27043612
80385.02 15835.749 4.5498155 -0.27231087
80385.83 15836.037 4.5488982 -0.27193153
80386.65 15836.325 4.5509273 -0.27407054
80387.46 15836.613 4.5456545 -0.27988577
80388.28 15836.901 4.5384627 -0.28050778
80389.10 15837.189 4.5444745 -0.28328034
80389.92 15837.477 4.5423822 -0.2876337
80390.73 15837.765 4.5391466 -0.29205296
80391.55 15838.053 4.5406009 -0.28735181
80392.37 15838.340 4.5381717 -0.29495808
80393.18 15838.628 4.5372726 -0.29258121
80394.00 15838.916 4.5392417 -0.29040544
80394.81 15839.204 4.5395536 -0.30255973
80395.63 15839.492 4.5335669 -0.30267782
80396.45 15839.780 4.5354072 -0.29941501
80397.26 15840.068 4.5314173 -0.30649679
80398.08 15840.356 4.5304155 -0.30464543
