# Sweep from 15839.040Hz to 15802.988Hz step -0.3004333333333458Hz delay 0.9s
# Excitation 0.003811Vpp attenuator 0 dB
# time(s), freq(Hz), absorption(nA), dispersion(nA)
14049.25 15839.040 4.3094774 -0.28180906
14050.16 15838.740 4.3082587 -0.27614863
14051.07 15838.439 4.305341 -0.27749974
14051.99 15838.139 4.3100517 -0.27347016
14052.90 15837.838 4.3100581 -0.26821354
14053.82 15837.538 4.3053419 -0.26538817
14054.73 15837.237 4.3077075 -0.26385649
14055.64 15836.937 4.3138534 -0.26131778
14056.56 15836.637 4.3148352 -0.25672495
14057.48 15836.336 4.3170321 -0.25008791
14058.40 15836.036 4.3156474 -0.24531377
14059.32 15835.735 4.3188893 -0.23874645
14060.24 15835.435 4.3158161 -0.2395293
14061.15 15835.134 4.317611 -0.23607215
14062.07 15834.834 4.321108 -0.22441947
14062.99 15834.534 4.3198443 -0.22877249
14063.91 15834.233 4.3242389 -0.22386442
14064.82 15833.933 4.3333253 -0.21846708
14065.73 15833.632 4.3336081 -0.20831646
14066.65 15833.332 4.3395721 -0.20892152
14067.57 15833.031 4.3424143 -0.20234928
14068.49 15832.731 4.3455493 -0.19579529
14069.41 15832.430 4.3505474 -0.19253272
14070.32 15832.130 4.3545683 -0.17416221
14071.24 15831.830 4.3555997 -0.17369013
14072.16 15831.529 4.3610166 -0.16566551
14073.08 15831.229 4.3683544 -0.16240628
14074.00 15830.928 4.3771215 -0.15520212
14074.91 15830.628 4.3790637 -0.13984385
14075.83 15830.327 4.3894611 -0.13377313
14076.74 15830.027 4.3963537 -0.12198331
14077.65 15829.727 4.4057374 -0.11221604
14078.57 15829.426 4.416806 -0.10716774
14079.49 15829.126 4.4194499 -0.099691128
14080.40 15828.825 4.4348021 -0.084386507
14081.32 15828.525 4.4372532 -0.075716919
14082.23 15828.224 4.4504882 -0.074325662
14083.14 15827.924 4.4589956 -0.058539072
14084.06 15827.624 4.4642752 -0.050503807
14084.98 15827.323 4.4757871 -0.047996501
14085.89 15827.023 4.4871786 -0.041373539
14086.81 15826.722 4.4954022 -0.032716475
14087.73 15826.422 4.5013053 -0.016118236
14088.65 15826.121 4.5151874 -0.012183236
14089.56 15825.821 4.5280958 -0.0092821191
14090.48 15825.521 4.5406859 -0.0063134586
14091.40 15825.220 4.5542934 -0.0011908822
14092.31 15824.920 4.5610368 0.0070931856
14093.23 15824.619 4.561181 0.002767355
14094.15 15824.319 4.5806673 0.0084765253
14095.07 15824.018 4.5923593 0.007154187
14095.98 15823.718 4.6063219 0.0095864987
14096.90 15823.417 4.6214586 0.001924648
14097.82 15823.117 4.6375767 -0.0053854192
14098.74 15822.817 4.651225 -0.0081412725
14099.66 15822.516 4.6702548 -0.024193897
14100.58 15822.216 4.6841751 -0.038256101
14101.50 15821.915 4.7061308 -0.05112793
14102.41 15821.615 4.7260778 -0.071696888
14103.33 15821.314 4.7421486 -0.083655884
14104.24 15821.014 4.7601425 -0.11236209
14105.16 15820.714 4.7787235 -0.15322183
14106.08 15820.413 4.7972594 -0.1893449
14107.00 15820.113 4.8133766 -0.22195181
14107.91 15819.812 4.827416 -0.26814882
14108.83 15819.512 4.8339548 -0.32128807
14109.74 15819.211 4.8361385 -0.38481627
14110.66 15818.911 4.8309003 -0.4714295
14111.58 15818.611 4.7654944 -0.63943668
14112.50 15818.310 4.3169684 -0.52306456
14113.42 15818.010 4.3147807 -0.50886217
14114.34 15817.709 4.3140772 -0.51211816
14115.25 15817.409 4.3087093 -0.51426122
14116.17 15817.108 4.3076361 -0.50765544
14117.09 15816.808 4.3102473 -0.50542707
14118.00 15816.507 4.30521 -0.49960352
14118.92 15816.207 4.3064806 -0.49307414
14119.84 15815.907 4.3061241 -0.4960699
14120.76 15815.606 4.3050763 -0.49068797
14121.67 15815.306 4.2986276 -0.48834215
14122.59 15815.005 4.3009422 -0.49183524
14123.50 15814.705 4.300648 -0.48156943
14124.42 15814.404 4.2991087 -0.48504683
14125.34 15814.104 4.3041427 -0.48113685
14126.26 15813.804 4.3027012 -0.47514257
14127.18 15813.503 4.3053674 -0.47491275
14128.10 15813.203 4.2949841 -0.47864603
14129.02 15812.902 4.2996139 -0.47471889
14129.93 15812.602 4.3005798 -0.46782264
14130.85 15812.301 4.3020991 -0.46893786
14131.77 15812.001 4.2941829 -0.47087062
14132.68 15811.701 4.3031091 -0.46793923
14133.60 15811.400 4.3003338 -0.46717756
14134.52 15811.100 4.295202 -0.46653878
14135.44 15810.799 4.2971733 -0.46159437
14136.35 15810.499 4.2964489 -0.45730602
14137.27 15810.198 4.2920769 -0.45998985
14138.18 15809.898 4.2956021 -0.45779444
14139.10 15809.598 4.2948932 -0.45848128
14140.01 15809.297 4.2940701 -0.45171006
14140.93 15808.997 4.2926154 -0.4551575
14141.85 15808.696 4.2925708 -0.45054176
14142.76 15808.396 4.294197 -0.45100467
14143.68 15808.095 4.2919924 -0.45169432
14144.59 15807.795 4.2909364 -0.44878365
14145.51 15807.494 4.2949623 -0.44648291
14146.43 15807.194 4.2961333 -0.44592912
14147.35 15806.894 4.287358 -0.44234346
14148.27 15806.593 4.2910178 -0.44580864
14149.18 15806.293 4.2922429 -0.44549375
14150.10 15805.992 4.2885495 -0.44403029
14151.02 15805.692 4.2907873 -0.44333299
14151.94 15805.391 4.2921879 -0.44784926
14152.85 15805.091 4.2944866 -0.44323554
14153.77 15804.791 4.2890815 -0.44056776
14154.68 15804.490 4.293297 -0.44162269
14155.60 15804.190 4.2963288 -0.43989522
14156.52 15803.889 4.2914626 -0.44390958
14157.43 15803.589 4.2911242 -0.44358981
14158.35 15803.288 4.2972242 -0.4389745
14159.27 15802.988 4.2911915 -0.4369443
