# Sweep from 15805.349Hz to 15845.308Hz step 0.33299166666667285Hz delay 0.8s
# Excitation 0.001872Vpp attenuator 0 dB
# time(s), freq(Hz), absorption(nA), dispersion(nA)
71603.25 15805.349 2.0916632 -0.36192893
71604.07 15805.682 2.0866646 -0.36681834
71604.88 15806.015 2.0858643 -0.36681402
71605.70 15806.348 2.0897442 -0.36700078
71606.51 15806.681 2.0917457 -0.36921654
71607.33 15807.014 2.0887876 -0.36655845
71608.15 15807.347 2.0887148 -0.36659935
71608.96 15807.680 2.088974 -0.36949587
71609.78 15808.013 2.0881141 -0.36869784
71610.59 15808.346 2.0859097 -0.36847712
71611.41 15808.679 2.0867906 -0.37326024
71612.23 15809.012 2.0891946 -0.36894156
71613.05 15809.345 2.0871369 -0.37384552
71613.86 15809.678 2.0865964 -0.36984389
71614.68 15810.011 2.0919281 -0.37009036
71615.49 15810.344 2.0917146 -0.37135803
71616.31 15810.677 2.0925029 -0.37461132
71617.13 15811.010 2.0890564 -0.37114097
71617.94 15811.343 2.0915704 -0.3779204
71618.76 15811.676 2.0912964 -0.37830611
71619.58 15812.009 2.0972223 -0.37484358
71620.39 15812.342 2.0936661 -0.37702216
71621.21 15812.675 2.0921007 -0.37390166
71622.03 15813.008 2.0941573 -0.38237735
71622.84 15813.341 2.0959947 -0.38060881
71623.66 15813.674 2.0948353 -0.38152737
71624.48 15814.007 2.0968912 -0.38182569
71625.29 15814.340 2.0956722 -0.38819908
71626.11 15814.673 2.0928192 -0.38401822
71626.92 15815.006 2.1049846 -0.38315005
71627.74 15815.339 2.105251 -0.38939845
71628.55 15815.672 2.105372 -0.38990416
71629.37 15816.005 2.1088251 -0.3871555
71630.19 15816.338 2.1007838 -0.39442142
71631.00 15816.671 2.1082756 -0.3948179
71631.82 15817.004 2.1060982 -0.39856187
71632.63 15817.337 2.1050632 -0.39368805
71633.45 15817.670 2.1139745 -0.40039234
71634.27 15818.003 2.112085 -0.39792042
71635.08 15818.336 2.111261 -0.3993037
71635.89 15818.669 2.1239291 -0.39989462
71636.71 15819.002 2.1250933 -0.40620787
71637.53 15819.335 2.1184455 -0.40308691
71638.35 15819.668 2.1339367 -0.40579846
71639.16 15820.001 2.1360531 -0.4104223
71639.98 15820.334 2.1443593 -0.41604548
71640.79 15820.667 2.1458552 -0.41189995
71641.61 15821.000 2.1478365 -0.413995
71642.43 15821.333 2.1535868 -0.41990199
71643.24 15821.666 2.1667943 -0.41690151
71644.05 15821.999 2.1742817 -0.42176893
71644.87 15822.332 2.1750093 -0.41769135
71645.69 15822.665 2.188194 -0.42010828
71646.51 15822.998 2.2001386 -0.41243936
71647.32 15823.331 2.2122911 -0.40620284
71648.14 15823.664 2.2241677 -0.40517801
71648.96 15823.997 2.2437871 -0.38975134
71649.77 15824.330 2.2454096 -0.37438809
71650.59 15824.663 2.2532197 -0.35999219
71651.41 15824.996 2.2573404 -0.3433243
71652.22 15825.328 2.2531558 -0.32593491
71653.04 15825.661 2.253136 -0.30991546
71653.85 15825.994 2.2493571 -0.29529266
71654.67 15826.327 2.241735 -0.28309233
71655.48 15826.660 2.2303573 -0.27416314
71656.30 15826.993 2.2226923 -0.26506382
71657.12 15827.326 2.2082197 -0.25660998
71657.94 15827.659 2.2000347 -0.25393447
71658.75 15827.992 2.1901128 -0.25246007
71659.57 15828.325 2.1832595 -0.24585734
71660.38 15828.658 2.1746164 -0.24739899
71661.20 15828.991 2.1606718 -0.24941451
71662.02 15829.324 2.1544015 -0.25211676
71662.83 15829.657 2.1503156 -0.2531271
71663.65 15829.990 2.1437538 -0.2543772
71664.47 15830.323 2.1359263 -0.25205762
71665.29 15830.656 2.1361759 -0.25980412
71666.11 15830.989 2.1296553 -0.26069799
71666.92 15831.322 2.1263402 -0.26090794
71667.74 15831.655 2.1188378 -0.2648824
71668.56 15831.988 2.1199037 -0.26255896
71669.37 15832.321 2.1158673 -0.2690665
71670.18 15832.654 2.1081746 -0.26858962
71671.00 15832.987 2.1111732 -0.27322992
71671.81 15833.320 2.1085991 -0.27075501
71672.63 15833.653 2.1067201 -0.27371175
71673.44 15833.986 2.1060721 -0.27158137
71674.26 15834.319 2.1067106 -0.27630381
71675.08 15834.652 2.1013896 -0.2764738
71675.90 15834.985 2.1021683 -0.28336675
71676.71 15835.318 2.0982582 -0.28184229
71677.53 15835.651 2.1033861 -0.28109653
71678.35 15835.984 2.0996949 -0.28750031
71679.16 15836.317 2.0960979 -0.28499383
71679.98 15836.650 2.0997918 -0.28778055
71680.80 15836.983 2.0921561 -0.29045586
71681.61 15837.316 2.0990312 -0.29193055
71682.43 15837.649 2.0967559 -0.28681492
71683.25 15837.982 2.0927193 -0.28910591
71684.06 15838.315 2.0929426 -0.29336448
71684.88 15838.648 2.0899895 -0.29217648
71685.70 15838.981 2.090246 -0.29029408
71686.51 15839.314 2.0913753 -0.28764705
71687.32 15839.647 2.0882912 -0.29266107
71688.14 15839.980 2.0960408 -0.29083472
71688.95 15840.313 2.0902119 -0.29659762
71689.77 15840.646 2.0941732 -0.29430657
71690.58 15840.979 2.0882433 -0.2923766
71691.40 15841.312 2.0841826 -0.29414588
71692.22 15841.645 2.0887087 -0.29656363
71693.03 15841.978 2.0886009 -0.29790516
71693.85 15842.311 2.0892619 -0.29939923
71694.66 15842.644 2.09109 -0.30162849
71695.48 15842.977 2.0853017 -0.29712038
71696.29 15843.310 2.0910879 -0.30099852
71697.11 15843.643 2.088826 -0.29486077
71697.92 15843.976 2.0898106 -0.30528088
71698.74 15844.309 2.0852058 -0.30580338
71699.56 15844.642 2.0842513 -0.29836508
71700.37 15844.975 2.0907698 -0.30642474
71701.19 15845.308 2.0849277 -0.30026189
