# Sweep from 15840.356Hz to 15805.804Hz step -0.28793333333333065Hz delay 0.8s
# Excitation 0.004009Vpp attenuator 0 dB
# time(s), freq(Hz), absorption(nA), dispersion(nA)
80003.54 15840.356 4.5341912 -0.30211777
80004.35 15840.068 4.5312809 -0.30383285
80005.17 15839.780 4.5360252 -0.30315351
80005.98 15839.492 4.5355387 -0.29783962
80006.80 15839.204 4.5360889 -0.29329118
80007.61 15838.916 4.5430529 -0.29902759
80008.43 15838.628 4.5344382 -0.29630212
80009.25 15838.340 4.5407123 -0.29094312
80010.06 15838.053 4.5428046 -0.29084293
80010.88 15837.765 4.5384586 -0.28913846
80011.70 15837.477 4.536922 -0.28155145
80012.51 15837.189 4.5432853 -0.28337988
80013.33 15836.901 4.5451884 -0.28068587
80014.14 15836.613 4.5451206 -0.2803869
80014.96 15836.325 4.5465667 -0.27775096
80015.77 15836.037 4.5512256 -0.27364823
80016.58 15835.749 4.5539541 -0.27136417
80017.40 15835.461 4.5516745 -0.27601175
80018.21 15835.173 4.5580964 -0.26786523
80019.03 15834.885 4.5602465 -0.26643349
80019.84 15834.597 4.5635115 -0.26011742
80020.66 15834.309 4.5578763 -0.25281622
80021.47 15834.021 4.5665606 -0.25765615
80022.30 15833.734 4.5720153 -0.25004655
80023.11 15833.446 4.5767256 -0.252484
80023.93 15833.158 4.5690199 -0.2474498
80024.75 15832.870 4.5750144 -0.24282139
80025.57 15832.582 4.5828228 -0.24513594
80026.38 15832.294 4.5859379 -0.23605877
80027.19 15832.006 4.5906995 -0.23026102
80028.01 15831.718 4.595774 -0.22747271
80028.82 15831.430 4.5959896 -0.21772873
80029.64 15831.142 4.6083883 -0.22233519
80030.46 15830.854 4.6076302 -0.21395313
80031.27 15830.566 4.6151199 -0.21050447
80032.09 15830.278 4.6233095 -0.20858259
80032.90 15829.990 4.6334003 -0.20021123
80033.72 15829.702 4.6377436 -0.20204759
80034.53 15829.415 4.6396185 -0.19660732
80035.35 15829.127 4.6521818 -0.19319013
80036.17 15828.839 4.6659948 -0.18817309
80036.99 15828.551 4.6746654 -0.18944301
80037.80 15828.263 4.6782257 -0.18578773
80038.62 15827.975 4.6944433 -0.18258508
80039.44 15827.687 4.7024155 -0.17685473
80040.25 15827.399 4.7159028 -0.17164774
80041.07 15827.111 4.7235026 -0.17518562
80041.88 15826.823 4.7417152 -0.16406457
80042.70 15826.535 4.7562162 -0.17161902
80043.52 15826.247 4.7642593 -0.17606376
80044.33 15825.959 4.772317 -0.17754499
80045.15 15825.671 4.7892136 -0.17439253
80045.97 15825.383 4.8074139 -0.17245348
80046.78 15825.096 4.8171346 -0.17843452
80047.60 15824.808 4.8322845 -0.17854217
80048.42 15824.520 4.8417564 -0.18273039
80049.24 15824.232 4.8584652 -0.18624172
80050.05 15823.944 4.8795323 -0.19810777
80050.87 15823.656 4.8849924 -0.20547327
80051.69 15823.368 4.8940906 -0.21986997
80052.50 15823.080 4.915712 -0.22615012
80053.31 15822.792 4.9280798 -0.23741291
80054.13 15822.504 4.9402147 -0.25061868
80054.95 15822.216 4.9514242 -0.27004302
80055.77 15821.928 4.9605492 -0.28655231
80056.58 15821.640 4.9684104 -0.31301323
80057.40 15821.352 4.9791688 -0.33773179
80058.21 15821.064 4.9883888 -0.36845501
80059.03 15820.777 4.989301 -0.40752988
80059.84 15820.489 4.9645305 -0.49236888
80060.66 15820.201 4.6557047 -0.59061085
80061.48 15819.913 4.628339 -0.57360432
80062.29 15819.625 4.6137748 -0.56845647
80063.11 15819.337 4.6108103 -0.55907873
80063.93 15819.049 4.6013888 -0.55692095
80064.75 15818.761 4.594684 -0.55511134
80065.56 15818.473 4.5862612 -0.55286296
80066.39 15818.185 4.5809916 -0.54099337
80067.20 15817.897 4.5729503 -0.53173005
80068.01 15817.609 4.5674683 -0.53354881
80068.83 15817.321 4.5689112 -0.52646345
80069.65 15817.033 4.5642478 -0.52290329
80070.46 15816.745 4.5625125 -0.51903038
80071.28 15816.458 4.55913 -0.51942766
80072.10 15816.170 4.5570423 -0.51539024
80072.91 15815.882 4.5576553 -0.51603752
80073.73 15815.594 4.5502507 -0.50909466
80074.54 15815.306 4.5475681 -0.50100186
80075.35 15815.018 4.5474849 -0.50391088
80076.17 15814.730 4.5493048 -0.49589255
80076.98 15814.442 4.5474653 -0.49888013
80077.80 15814.154 4.5419965 -0.49794522
80078.61 15813.866 4.5444995 -0.49233051
80079.43 15813.578 4.5367806 -0.49491848
80080.24 15813.290 4.5368156 -0.49426166
80081.06 15813.002 4.5384054 -0.4923379
80081.88 15812.714 4.5407032 -0.48551084
80082.69 15812.426 4.5375918 -0.48054483
80083.51 15812.139 4.5321317 -0.47935237
80084.33 15811.851 4.5350903 -0.48637196
80085.14 15811.563 4.5299753 -0.47581125
80085.96 15811.275 4.5305669 -0.48127009
80086.77 15810.987 4.5303354 -0.4751208
80087.59 15810.699 4.5324855 -0.47499822
80088.40 15810.411 4.5332422 -0.4686604
80089.22 15810.123 4.5310062 -0.46804854
80090.04 15809.835 4.5300562 -0.4675893
80090.85 15809.547 4.5302363 -0.4681587
80091.67 15809.259 4.5257152 -0.47007632
80092.48 15808.971 4.5311749 -0.47461748
80093.30 15808.683 4.5280826 -0.46325255
80094.12 15808.395 4.5283809 -0.4600725
80094.93 15808.107 4.5245797 -0.46566063
80095.75 15807.820 4.5323832 -0.46183129
80096.56 15807.532 4.5250581 -0.45970054
80097.38 15807.244 4.5295014 -0.46007256
80098.19 15806.956 4.5282968 -0.4627276
80099.01 15806.668 4.5222155 -0.45618941
80099.83 15806.380 4.527617 -0.45992354
80100.64 15806.092 4.5244137 -0.45845894
80101.46 15805.804 4.5242582 -0.45623409
