# Sweep from 15806.343Hz to 15843.347Hz step 0.3083666666666583Hz delay 0.8s
# Excitation 0.002671Vpp attenuator 0 dB
# time(s), freq(Hz), absorption(nA), dispersion(nA)
75358.23 15806.343 2.9782714 -0.39697795
75359.05 15806.651 2.9774817 -0.39999657
75359.86 15806.960 2.9769603 -0.40213837
75360.68 15807.268 2.9754308 -0.40012347
75361.49 15807.576 2.9835019 -0.4034045
75362.31 15807.885 2.9760831 -0.4041178
75363.13 15808.193 2.9786272 -0.40289078
75363.95 15808.502 2.9766466 -0.39934463
75364.76 15808.810 2.9773155 -0.40476064
75365.57 15809.118 2.9868734 -0.40658139
75366.39 15809.427 2.9758708 -0.40701948
75367.21 15809.735 2.9813946 -0.41313314
75368.02 15810.043 2.9816983 -0.40266065
75368.83 15810.352 2.9881517 -0.41027957
75369.65 15810.660 2.9832941 -0.41789755
75370.47 15810.969 2.9773705 -0.41449007
75371.28 15811.277 2.9886287 -0.40784329
75372.10 15811.585 2.9862645 -0.40966785
75372.92 15811.894 2.9849507 -0.41084252
75373.73 15812.202 2.9944674 -0.41482167
75374.55 15812.510 2.9935015 -0.41980775
75375.36 15812.819 2.9873991 -0.41651367
75376.18 15813.127 2.9878172 -0.41449806
75377.00 15813.435 2.9878861 -0.41896584
75377.81 15813.744 2.9870014 -0.42126857
75378.63 15814.052 2.9911957 -0.42118046
75379.44 15814.361 2.9941377 -0.42385545
75380.26 15814.669 2.9927919 -0.43120093
75381.07 15814.977 2.9909936 -0.42643438
75381.89 15815.286 2.994519 -0.43072612
75382.71 15815.594 2.9968767 -0.43148825
75383.53 15815.902 2.997057 -0.43119078
75384.35 15816.211 2.9978696 -0.43105786
75385.16 15816.519 3.0004953 -0.43576293
75385.98 15816.827 3.0006202 -0.43584492
75386.79 15817.136 3.0020688 -0.44153504
75387.61 15817.444 3.0081237 -0.44469496
75388.43 15817.753 3.0147344 -0.44780722
75389.25 15818.061 3.0126744 -0.44937667
75390.06 15818.369 3.015977 -0.45102922
75390.88 15818.678 3.0185049 -0.46193375
75391.70 15818.986 3.0244212 -0.45485388
75392.51 15819.294 3.0312378 -0.46145308
75393.32 15819.603 3.0288074 -0.45982068
75394.14 15819.911 3.038002 -0.46721655
75394.95 15820.220 3.0411004 -0.46744429
75395.77 15820.528 3.0525614 -0.47354297
75396.59 15820.836 3.0559559 -0.47553729
75397.41 15821.145 3.0712195 -0.47730788
75398.22 15821.453 3.0768597 -0.47795538
75399.04 15821.761 3.092915 -0.48105522
75399.85 15822.070 3.1116649 -0.48530006
75400.67 15822.378 3.1349307 -0.48255117
75401.48 15822.686 3.155285 -0.47412857
75402.30 15822.995 3.1779971 -0.46600951
75403.11 15823.303 3.2060968 -0.44762285
75403.93 15823.612 3.2237967 -0.42206537
75404.74 15823.920 3.2401617 -0.39283017
75405.56 15824.228 3.2479443 -0.3598357
75406.38 15824.537 3.2471469 -0.33527544
75407.20 15824.845 3.2450123 -0.30880793
75408.01 15825.153 3.2249122 -0.28886097
75408.83 15825.462 3.223 -0.27243297
75409.65 15825.770 3.20257 -0.25951334
75410.47 15826.078 3.1975935 -0.25166932
75411.28 15826.387 3.180668 -0.24125512
75412.10 15826.695 3.1645916 -0.23623798
75412.91 15827.004 3.1525242 -0.23277376
75413.73 15827.312 3.1389745 -0.22866837
75414.55 15827.620 3.1247537 -0.22462072
75415.36 15827.929 3.1217946 -0.22810639
75416.18 15828.237 3.10924 -0.22760823
75416.99 15828.545 3.0974893 -0.22610205
75417.80 15828.854 3.0922711 -0.21921386
75418.62 15829.162 3.0764245 -0.2281643
75419.44 15829.470 3.0740694 -0.22963411
75420.25 15829.779 3.0658457 -0.23731057
75421.07 15830.087 3.0592712 -0.23214868
75421.89 15830.396 3.0570668 -0.23614707
75422.70 15830.704 3.0445728 -0.2415014
75423.52 15831.012 3.0454676 -0.2442186
75424.34 15831.321 3.0294204 -0.23908424
75425.15 15831.629 3.0330025 -0.24216322
75425.97 15831.937 3.0253057 -0.24999949
75426.78 15832.246 3.0255601 -0.25053382
75427.60 15832.554 3.0194706 -0.25030636
75428.42 15832.863 3.0174274 -0.26199382
75429.24 15833.171 3.0075842 -0.26292076
75430.05 15833.479 3.011025 -0.26789647
75430.87 15833.788 3.0079959 -0.2669432
75431.69 15834.096 3.0069975 -0.27082851
75432.50 15834.404 3.0022627 -0.27190544
75433.32 15834.713 2.9992477 -0.2761646
75434.13 15835.021 2.9979701 -0.26889609
75434.95 15835.329 2.9941939 -0.27463071
75435.76 15835.638 2.9927814 -0.27942534
75436.58 15835.946 2.9918531 -0.2793623
75437.39 15836.255 2.9934572 -0.27879335
75438.21 15836.563 2.9887506 -0.27570533
75439.02 15836.871 2.9924033 -0.29244768
75439.84 15837.180 2.9917085 -0.28740808
75440.65 15837.488 2.9919579 -0.28843846
75441.47 15837.796 2.9906655 -0.29074798
75442.29 15838.105 2.9848643 -0.29082631
75443.10 15838.413 2.9875118 -0.29297127
75443.92 15838.721 2.9834407 -0.28845687
75444.73 15839.030 2.9849168 -0.28826071
75445.55 15839.338 2.9845135 -0.29604382
75446.36 15839.647 2.982558 -0.2946463
75447.18 15839.955 2.9846053 -0.29576597
75448.00 15840.263 2.9847206 -0.29879592
75448.81 15840.572 2.9837911 -0.30123678
75449.63 15840.880 2.9798784 -0.3014905
75450.45 15841.188 2.9800399 -0.29864304
75451.26 15841.497 2.9821713 -0.29887377
75452.08 15841.805 2.9760856 -0.29560638
75452.89 15842.114 2.9797618 -0.30184796
75453.71 15842.422 2.9809266 -0.3030093
75454.52 15842.730 2.9833643 -0.30195989
75455.34 15843.039 2.9794917 -0.30726693
75456.15 15843.347 2.9840505 -0.30421052
