# Sweep from 15840.999Hz to 15806.329Hz step -0.28891666666666727Hz delay 0.8s
# Excitation 0.003622Vpp attenuator 0 dB
# time(s), freq(Hz), absorption(nA), dispersion(nA)
79015.13 15840.999 4.0783943 -0.30257567
79015.94 15840.710 4.0851955 -0.30252764
79016.76 15840.421 4.0853074 -0.30676509
79017.58 15840.132 4.0805435 -0.30593898
79018.39 15839.843 4.0860787 -0.29965344
79019.20 15839.554 4.0866489 -0.29991466
79020.02 15839.265 4.0850455 -0.29880181
79020.83 15838.977 4.0858677 -0.29313728
79021.65 15838.688 4.082136 -0.29130413
79022.47 15838.399 4.0910913 -0.29298474
79023.29 15838.110 4.0918139 -0.29421489
79024.10 15837.821 4.0941318 -0.28843934
79024.91 15837.532 4.0946325 -0.28909739
79025.73 15837.243 4.0900236 -0.28538565
79026.55 15836.954 4.0958189 -0.29189212
79027.36 15836.665 4.0990208 -0.28442477
79028.17 15836.376 4.102546 -0.28307761
79029.00 15836.087 4.099697 -0.27410019
79029.81 15835.798 4.0995947 -0.27535123
79030.63 15835.510 4.1020112 -0.26984623
79031.45 15835.221 4.102661 -0.2722297
79032.26 15834.932 4.1168501 -0.27112011
79033.08 15834.643 4.1150124 -0.26177918
79033.90 15834.354 4.111369 -0.26293412
79034.71 15834.065 4.1168132 -0.25657448
79035.53 15833.776 4.1219719 -0.2578449
79036.34 15833.487 4.1186099 -0.25630214
79037.16 15833.198 4.1242224 -0.25111297
79037.97 15832.909 4.1301946 -0.24761707
79038.79 15832.620 4.129935 -0.24591697
79039.60 15832.332 4.1364819 -0.24911236
79040.41 15832.043 4.1385747 -0.23605403
79041.23 15831.754 4.1433418 -0.23633322
79042.04 15831.465 4.1520202 -0.22924939
79042.86 15831.176 4.15775 -0.23064031
79043.68 15830.887 4.1578674 -0.22149756
79044.50 15830.598 4.1658759 -0.21568886
79045.31 15830.309 4.167463 -0.21830901
79046.12 15830.020 4.1720546 -0.21738516
79046.94 15829.731 4.1850922 -0.21317798
79047.76 15829.442 4.1938165 -0.20607341
79048.58 15829.153 4.1971334 -0.20237458
79049.39 15828.864 4.209016 -0.20022722
79050.21 15828.576 4.2173206 -0.20285789
79051.03 15828.287 4.2255983 -0.1993557
79051.84 15827.998 4.2332217 -0.19833966
79052.66 15827.709 4.2458123 -0.19107321
79053.47 15827.420 4.2613769 -0.19404392
79054.30 15827.131 4.2756901 -0.19328382
79055.11 15826.842 4.2887345 -0.19037095
79055.93 15826.553 4.2995489 -0.18863429
79056.75 15826.264 4.310823 -0.19192211
79057.57 15825.975 4.3217851 -0.20237496
79058.39 15825.686 4.3376663 -0.19683056
79059.20 15825.397 4.3532023 -0.20544542
79060.02 15825.109 4.3738232 -0.20974213
79060.83 15824.820 4.3872419 -0.21749767
79061.65 15824.531 4.3952768 -0.23237389
79062.46 15824.242 4.4159874 -0.23196004
79063.28 15823.953 4.4205999 -0.24959388
79064.09 15823.664 4.4354451 -0.26129396
79064.91 15823.375 4.4475059 -0.27371328
79065.73 15823.086 4.4550234 -0.29866041
79066.54 15822.797 4.4715034 -0.32445314
79067.36 15822.508 4.4821309 -0.34824615
79068.17 15822.219 4.4852254 -0.38812178
79068.99 15821.931 4.469784 -0.43894192
79069.81 15821.642 4.422865 -0.5185251
79070.63 15821.353 4.2851671 -0.57367885
79071.44 15821.064 4.2396873 -0.56546276
79072.26 15820.775 4.2128841 -0.55827564
79073.08 15820.486 4.1898124 -0.55102623
79073.89 15820.197 4.1766539 -0.54626173
79074.71 15819.908 4.1728449 -0.54538265
79075.53 15819.619 4.161041 -0.53502021
79076.34 15819.330 4.1497315 -0.52766433
79077.16 15819.041 4.1421654 -0.5282036
79077.97 15818.752 4.133904 -0.51638688
79078.79 15818.463 4.136708 -0.51758963
79079.60 15818.175 4.1271446 -0.51074022
79080.42 15817.886 4.1197623 -0.50680904
79081.23 15817.597 4.1251806 -0.50603228
79082.05 15817.308 4.1219578 -0.5033296
79082.87 15817.019 4.1130152 -0.49972442
79083.68 15816.730 4.1145327 -0.50246399
79084.50 15816.441 4.112414 -0.48973016
79085.31 15816.152 4.1059698 -0.48841741
79086.13 15815.863 4.1094027 -0.48681841
79086.95 15815.574 4.1050916 -0.4873682
79087.76 15815.285 4.0972491 -0.48093187
79088.58 15814.996 4.0991608 -0.48224331
79089.39 15814.708 4.0991449 -0.47794708
79090.21 15814.419 4.0967402 -0.47740696
79091.02 15814.130 4.0955752 -0.47712086
79091.84 15813.841 4.0917289 -0.46383258
79092.65 15813.552 4.09122 -0.4781956
79093.47 15813.263 4.0982441 -0.4687289
79094.28 15812.974 4.0893769 -0.47038262
79095.09 15812.685 4.0823979 -0.46795921
79095.91 15812.396 4.0885725 -0.46480335
79096.73 15812.107 4.0892305 -0.46465257
79097.55 15811.818 4.085558 -0.46421829
79098.37 15811.530 4.0844543 -0.46114613
79099.19 15811.241 4.0824357 -0.45497663
79100.00 15810.952 4.088045 -0.45291478
79100.81 15810.663 4.084196 -0.45403391
79101.63 15810.374 4.0848372 -0.45342443
79102.44 15810.085 4.083648 -0.45136372
79103.26 15809.796 4.081322 -0.44664759
79104.08 15809.507 4.0812106 -0.45070396
79104.90 15809.218 4.0853542 -0.44759889
79105.71 15808.929 4.0783602 -0.44986442
79106.52 15808.640 4.0810564 -0.44580989
79107.35 15808.351 4.0793575 -0.44543771
79108.16 15808.062 4.0803693 -0.44666061
79108.98 15807.774 4.0831533 -0.4419349
79109.79 15807.485 4.0815444 -0.44583669
79110.61 15807.196 4.0792697 -0.44271238
79111.42 15806.907 4.0780828 -0.44386741
79112.24 15806.618 4.0764307 -0.43942592
79113.05 15806.329 4.0791892 -0.44136061
